SpectraSuite Datei
++++++++++++++++++++++++++++++++++++
Datum: Tue Dec 10 16:01:31 CET 2019
Benutzer: Lichtquellen1
Dark-Spektrum vorhanden: Ja
Referenz-Spektrum vorhanden: Nein
Zahl der probierten Teilspektren: 1
Spektrometer: USB4F05832
Integrationszeit (usec): 40000 (USB4F05832)
Spektren Durchschnitt berechnet: 40 (USB4F05832)
Boxcar Glättung: 0 (USB4F05832)
Dunkelstromkorrektur: Nein (USB4F05832)
Puls/Lampe aktiviert: Nein (USB4F05832)
Correct for Detector Non-linearity: Nein (USB4F05832)
Streulichtkorrektur: Nein (USB4F05832)
Anzahl Pixel in verarbeitetem Spektrum: 3648
>>>>>Begin Processed Spectral Data<<<<<
177,54	0,56
177,75	0,56
177,97	0,56
178,19	7,42
178,41	-7,17
178,63	11,62
178,85	11,83
179,07	9,42
179,29	5,73
179,51	3,12
179,73	3,17
179,95	7,48
180,17	4,04
180,39	-5,32
180,61	9,68
180,83	-2,05
181,05	-9,32
181,27	-5,68
181,49	10,14
181,71	10,39
181,92	0,56
182,14	-3,02
182,36	19,05
182,58	2,36
182,80	4,56
183,02	13,47
183,24	6,76
183,46	-2,66
183,68	11,06
183,90	-4,25
184,12	5,79
184,34	-2,56
184,56	3,38
184,78	15,92
185,00	17,71
185,21	6,30
185,43	4,45
185,65	8,60
185,87	2,92
186,09	5,22
186,31	8,40
186,53	21,91
186,75	6,04
186,97	12,44
187,19	5,17
187,41	10,85
187,63	-2,05
187,84	-5,94
188,06	2,66
188,28	1,13
188,50	11,67
188,72	-5,48
188,94	24,78
189,16	7,53
189,38	1,28
189,60	9,63
189,82	21,61
190,03	-8,09
190,25	-2,05
190,47	-5,27
190,69	-1,02
190,91	-6,30
191,13	-3,02
191,35	13,93
191,57	23,30
191,79	8,40
192,01	12,03
192,22	2,51
192,44	-5,53
192,66	2,97
192,88	10,60
193,10	2,92
193,32	17,25
193,54	-1,59
193,76	13,36
193,98	2,20
194,19	3,38
194,41	11,11
194,63	3,23
194,85	16,23
195,07	2,71
195,29	10,85
195,51	3,02
195,73	15,26
195,94	-6,04
196,16	0,46
196,38	-0,67
196,60	4,71
196,82	18,12
197,04	8,04
197,26	14,80
197,48	-1,59
197,69	17,31
197,91	-5,53
198,13	2,87
198,35	6,45
198,57	2,92
198,79	17,00
199,01	0,31
199,22	1,69
199,44	-3,89
199,66	7,17
199,88	13,57
200,10	7,22
200,32	8,65
200,54	9,52
200,75	8,65
200,97	2,20
201,19	2,30
201,41	-1,79
201,63	14,80
201,85	11,06
202,06	-9,47
202,28	12,80
202,50	8,96
202,72	5,58
202,94	13,26
203,16	5,32
203,38	9,22
203,59	6,14
203,81	8,45
204,03	11,78
204,25	-5,32
204,47	11,62
204,69	2,15
204,90	16,18
205,12	3,99
205,34	-13,47
205,56	10,96
205,78	-9,52
206,00	-0,51
206,21	6,25
206,43	6,96
206,65	7,73
206,87	10,75
207,09	2,76
207,30	-9,37
207,52	2,36
207,74	4,76
207,96	-8,14
208,18	9,06
208,40	15,67
208,61	-2,05
208,83	-2,71
209,05	4,97
209,27	-5,58
209,49	3,38
209,70	18,43
209,92	-1,95
210,14	4,15
210,36	4,56
210,58	-5,53
210,79	10,85
211,01	14,59
211,23	14,44
211,45	-2,97
211,67	6,20
211,88	7,94
212,10	9,42
212,32	-12,60
212,54	8,96
212,76	19,10
212,97	-3,33
213,19	26,47
213,41	2,66
213,63	10,80
213,85	5,22
214,06	5,48
214,28	-4,66
214,50	10,24
214,72	14,23
214,94	1,28
215,15	-2,41
215,37	-1,89
215,59	-1,79
215,81	-1,23
216,02	1,43
216,24	6,60
216,46	-7,48
216,68	31,85
216,90	-0,61
217,11	5,79
217,33	15,26
217,55	7,53
217,77	-2,05
217,98	13,06
218,20	2,25
218,42	1,74
218,64	8,81
218,85	9,22
219,07	0,77
219,29	0,82
219,51	8,91
219,73	15,67
219,94	11,32
220,16	12,60
220,38	11,32
220,60	7,58
220,81	9,01
221,03	-3,69
221,25	12,39
221,47	3,84
221,68	-2,20
221,90	7,83
222,12	27,29
222,34	27,65
222,55	21,86
222,77	-3,53
222,99	3,79
223,21	4,66
223,42	-0,67
223,64	5,32
223,86	0,92
224,08	3,79
224,29	3,28
224,51	12,24
224,73	3,38
224,94	30,51
225,16	14,69
225,38	-7,42
225,60	-4,40
225,81	5,17
226,03	-7,32
226,25	5,58
226,47	28,98
226,68	7,99
226,90	13,41
227,12	17,05
227,33	-5,68
227,55	2,41
227,77	7,94
227,99	8,65
228,20	2,46
228,42	0,97
228,64	0,67
228,86	13,82
229,07	12,13
229,29	2,10
229,51	1,08
229,72	-17,00
229,94	2,76
230,16	2,92
230,38	-7,63
230,59	9,88
230,81	6,60
231,03	-3,58
231,24	8,91
231,46	-3,23
231,68	-7,78
231,89	-6,30
232,11	2,61
232,33	14,08
232,55	3,12
232,76	3,07
232,98	8,19
233,20	-2,71
233,41	2,25
233,63	-0,72
233,85	10,34
234,06	-12,90
234,28	3,02
234,50	8,35
234,71	7,53
234,93	19,76
235,15	1,64
235,37	-1,02
235,58	6,50
235,80	-1,54
236,02	6,35
236,23	7,42
236,45	4,97
236,67	4,56
236,88	0,46
237,10	14,23
237,32	-9,11
237,53	17,71
237,75	15,21
237,97	-8,86
238,18	10,96
238,40	6,20
238,62	3,89
238,83	13,31
239,05	2,00
239,27	2,25
239,48	7,27
239,70	7,37
239,92	18,43
240,13	-0,46
240,35	8,45
240,57	8,96
240,78	8,86
241,00	6,09
241,22	2,97
241,43	-13,16
241,65	6,20
241,87	5,17
242,08	-0,67
242,30	9,16
242,52	-2,00
242,73	5,94
242,95	8,55
243,16	20,68
243,38	25,19
243,60	14,03
243,81	10,34
244,03	0,97
244,25	2,25
244,46	13,57
244,68	7,78
244,90	7,12
245,11	12,95
245,33	13,87
245,55	17,15
245,76	8,81
245,98	4,51
246,19	7,78
246,41	8,29
246,63	11,62
246,84	13,47
247,06	-2,97
247,28	21,15
247,49	18,84
247,71	9,01
247,92	3,02
248,14	-5,53
248,36	13,52
248,57	12,75
248,79	8,96
249,01	13,77
249,22	10,34
249,44	8,81
249,65	14,13
249,87	7,37
250,09	11,47
250,30	5,27
250,52	13,87
250,73	12,65
250,95	3,94
251,17	10,39
251,38	1,84
251,60	7,53
251,81	1,48
252,03	23,50
252,25	19,71
252,46	-5,22
252,68	7,07
252,89	6,96
253,11	2,92
253,33	23,19
253,54	13,52
253,76	6,09
253,97	3,07
254,19	6,71
254,41	0,36
254,62	11,21
254,84	-1,64
255,05	-8,19
255,27	0,87
255,49	-3,48
255,70	4,92
255,92	-1,79
256,13	0,31
256,35	9,63
256,56	0,00
256,78	8,45
257,00	9,01
257,21	4,81
257,43	-2,76
257,64	6,04
257,86	7,88
258,08	12,95
258,29	3,07
258,51	13,26
258,72	-9,88
258,94	-1,08
259,15	8,96
259,37	9,68
259,59	3,43
259,80	18,94
260,02	7,94
260,23	13,77
260,45	-0,26
260,66	-1,95
260,88	13,06
261,09	6,96
261,31	20,27
261,53	9,11
261,74	20,12
261,96	10,60
262,17	10,29
262,39	9,06
262,60	21,40
262,82	-3,58
263,03	3,89
263,25	9,42
263,46	13,31
263,68	0,26
263,90	21,25
264,11	2,97
264,33	1,84
264,54	11,72
264,76	16,59
264,97	15,26
265,19	14,28
265,40	6,96
265,62	28,88
265,83	4,15
266,05	4,56
266,26	10,09
266,48	8,24
266,70	18,23
266,91	10,65
267,13	18,07
267,34	-6,20
267,56	3,33
267,77	-9,16
267,99	-18,89
268,20	7,22
268,42	5,94
268,63	17,20
268,85	24,01
269,06	-15,05
269,28	13,82
269,49	13,11
269,71	2,97
269,92	-0,51
270,14	7,32
270,35	17,51
270,57	17,61
270,78	3,74
271,00	17,41
271,21	7,27
271,43	4,45
271,64	-6,55
271,86	9,22
272,07	8,35
272,29	8,40
272,50	15,97
272,72	-9,68
272,93	5,94
273,15	3,12
273,36	8,81
273,58	2,71
273,79	-12,60
274,01	19,56
274,22	-4,04
274,44	17,31
274,65	-16,54
274,87	7,22
275,08	-3,23
275,30	3,43
275,51	10,50
275,73	15,56
275,94	-7,78
276,16	14,95
276,37	17,41
276,59	5,02
276,80	16,23
277,02	5,58
277,23	11,01
277,45	6,50
277,66	8,50
277,88	12,03
278,09	12,19
278,30	-1,28
278,52	-1,23
278,73	6,35
278,95	6,86
279,16	-8,70
279,38	13,11
279,59	6,20
279,81	14,64
280,02	13,77
280,24	8,55
280,45	2,61
280,67	13,62
280,88	-6,91
281,09	4,97
281,31	17,20
281,52	16,38
281,74	-0,67
281,95	19,61
282,17	-1,69
282,38	-4,71
282,60	4,30
282,81	15,15
283,02	2,10
283,24	5,63
283,45	5,58
283,67	12,13
283,88	25,14
284,10	-2,66
284,31	-2,51
284,53	20,27
284,74	-1,18
284,95	12,54
285,17	5,94
285,38	6,30
285,60	7,83
285,81	7,63
286,03	0,67
286,24	5,68
286,45	-1,95
286,67	8,81
286,88	4,25
287,10	-12,13
287,31	-0,20
287,53	18,07
287,74	8,04
287,95	-5,32
288,17	6,30
288,38	6,66
288,60	-2,10
288,81	14,44
289,02	-2,30
289,24	13,47
289,45	12,70
289,67	1,43
289,88	16,59
290,10	3,89
290,31	-0,82
290,52	-4,56
290,74	2,87
290,95	5,73
291,17	1,59
291,38	11,32
291,59	15,05
291,81	-8,19
292,02	-6,30
292,24	6,81
292,45	8,24
292,66	-8,76
292,88	11,62
293,09	9,06
293,31	-3,48
293,52	-6,71
293,73	4,76
293,95	6,81
294,16	28,83
294,37	13,52
294,59	-2,71
294,80	21,09
295,02	1,64
295,23	-7,83
295,44	-0,77
295,66	3,48
295,87	14,28
296,09	7,63
296,30	10,29
296,51	-2,61
296,73	6,81
296,94	5,17
297,15	-2,05
297,37	14,03
297,58	-0,97
297,79	15,87
298,01	-10,04
298,22	-2,82
298,44	8,09
298,65	-3,89
298,86	4,56
299,08	2,66
299,29	2,41
299,50	-2,71
299,72	15,56
299,93	2,20
300,14	-0,51
300,36	9,06
300,57	8,65
300,79	2,25
301,00	5,94
301,21	5,48
301,43	2,36
301,64	-14,54
301,85	16,74
302,07	14,18
302,28	13,52
302,49	15,41
302,71	5,53
302,92	3,48
303,13	0,10
303,35	6,66
303,56	23,65
303,77	-9,78
303,99	2,00
304,20	-0,72
304,41	-1,38
304,63	5,22
304,84	8,96
305,05	15,51
305,27	17,87
305,48	-16,69
305,69	5,89
305,91	11,62
306,12	0,05
306,33	7,17
306,55	-1,79
306,76	12,95
306,97	14,18
307,19	-1,69
307,40	18,64
307,61	-0,00
307,82	0,41
308,04	7,27
308,25	4,97
308,46	-4,10
308,68	-15,46
308,89	-6,96
309,10	-0,77
309,32	10,29
309,53	13,00
309,74	-4,86
309,96	-1,18
310,17	9,98
310,38	-2,00
310,59	-15,41
310,81	4,76
311,02	-1,43
311,23	10,91
311,45	8,65
311,66	-17,05
311,87	2,66
312,09	27,85
312,30	9,88
312,51	-0,56
312,72	1,69
312,94	13,41
313,15	-12,03
313,36	17,61
313,58	-1,18
313,79	9,47
314,00	-6,55
314,21	-9,16
314,43	5,38
314,64	-2,10
314,85	9,37
315,06	-4,20
315,28	1,33
315,49	7,48
315,70	0,51
315,92	-1,69
316,13	6,30
316,34	-9,11
316,55	8,86
316,77	-0,92
316,98	21,61
317,19	4,10
317,40	12,60
317,62	3,02
317,83	14,23
318,04	14,69
318,25	11,62
318,47	-0,67
318,68	7,99
318,89	3,58
319,11	12,29
319,32	11,67
319,53	-8,50
319,74	4,51
319,96	14,49
320,17	11,26
320,38	1,43
320,59	2,05
320,81	14,28
321,02	-8,76
321,23	10,75
321,44	7,68
321,65	-7,99
321,87	-4,56
322,08	15,41
322,29	-4,20
322,50	5,32
322,72	10,55
322,93	3,99
323,14	9,47
323,35	1,43
323,57	17,51
323,78	3,69
323,99	18,48
324,20	8,24
324,41	13,41
324,63	13,41
324,84	22,78
325,05	12,54
325,26	4,20
325,48	3,17
325,69	-1,08
325,90	20,27
326,11	15,15
326,32	7,07
326,54	9,16
326,75	-3,12
326,96	-7,22
327,17	8,09
327,39	-7,48
327,60	15,15
327,81	8,50
328,02	12,90
328,23	8,81
328,45	-8,09
328,66	6,14
328,87	-10,09
329,08	-0,46
329,29	14,39
329,51	5,89
329,72	7,94
329,93	6,66
330,14	5,43
330,35	4,81
330,56	6,20
330,78	-8,50
330,99	-16,08
331,20	4,66
331,41	12,39
331,62	-1,33
331,84	2,41
332,05	0,00
332,26	2,87
332,47	7,37
332,68	10,60
332,90	-5,68
333,11	9,42
333,32	7,83
333,53	7,27
333,74	4,35
333,95	9,47
334,17	6,96
334,38	3,33
334,59	-7,17
334,80	0,46
335,01	7,17
335,22	20,27
335,44	0,87
335,65	18,79
335,86	8,60
336,07	8,76
336,28	4,20
336,49	7,32
336,71	8,40
336,92	6,35
337,13	3,79
337,34	6,66
337,55	23,19
337,76	-3,53
337,97	19,97
338,19	16,23
338,40	3,58
338,61	6,14
338,82	17,20
339,03	1,23
339,24	8,70
339,45	8,29
339,67	-5,27
339,88	19,61
340,09	8,14
340,30	4,40
340,51	2,92
340,72	2,15
340,93	-1,69
341,15	-5,43
341,36	19,92
341,57	-9,93
341,78	7,58
341,99	-13,00
342,20	7,58
342,41	2,87
342,62	5,48
342,84	1,59
343,05	12,54
343,26	1,13
343,47	14,69
343,68	0,15
343,89	20,27
344,10	7,94
344,31	0,46
344,53	17,77
344,74	5,12
344,95	6,50
345,16	-2,41
345,37	0,31
345,58	8,04
345,79	2,56
346,00	-9,47
346,21	18,28
346,42	-3,23
346,64	13,82
346,85	6,30
347,06	-5,02
347,27	-3,48
347,48	10,91
347,69	15,72
347,90	-2,41
348,11	3,69
348,32	14,18
348,53	22,22
348,75	9,73
348,96	7,73
349,17	-2,82
349,38	11,93
349,59	17,00
349,80	3,17
350,01	8,65
350,22	-1,23
350,43	-4,20
350,64	13,16
350,85	-1,89
351,06	2,20
351,28	15,87
351,49	1,38
351,70	-4,40
351,91	-0,46
352,12	20,02
352,33	5,07
352,54	15,21
352,75	7,07
352,96	7,22
353,17	1,84
353,38	-2,46
353,59	4,10
353,80	21,20
354,01	18,18
354,22	3,17
354,44	1,08
354,65	8,45
354,86	12,39
355,07	9,06
355,28	26,78
355,49	10,24
355,70	-0,46
355,91	11,06
356,12	-0,05
356,33	-0,41
356,54	12,70
356,75	6,50
356,96	-4,35
357,17	-7,53
357,38	7,83
357,59	16,18
357,80	7,83
358,01	9,22
358,22	13,87
358,43	11,47
358,64	-5,17
358,85	7,94
359,07	21,30
359,28	1,02
359,49	-3,94
359,70	-2,76
359,91	-1,23
360,12	14,23
360,33	11,88
360,54	18,43
360,75	21,35
360,96	8,35
361,17	-5,94
361,38	5,17
361,59	2,76
361,80	1,74
362,01	5,22
362,22	7,53
362,43	-0,92
362,64	-4,15
362,85	-10,85
363,06	30,92
363,27	-8,50
363,48	6,86
363,69	9,78
363,90	7,12
364,11	-1,23
364,32	9,42
364,53	9,68
364,74	-2,00
364,95	0,46
365,16	-3,38
365,37	11,47
365,58	7,07
365,79	6,14
366,00	15,72
366,21	10,50
366,42	7,78
366,63	13,26
366,84	3,89
367,05	5,02
367,26	2,36
367,47	-3,94
367,68	-0,36
367,89	2,00
368,10	11,67
368,31	1,89
368,52	2,61
368,73	22,89
368,94	10,96
369,15	-4,15
369,36	12,95
369,57	7,88
369,78	5,79
369,99	5,12
370,20	4,45
370,40	0,05
370,61	-2,97
370,82	4,92
371,03	9,52
371,24	-2,97
371,45	5,12
371,66	-1,28
371,87	11,72
372,08	2,05
372,29	17,05
372,50	6,66
372,71	4,92
372,92	3,38
373,13	12,34
373,34	9,11
373,55	-12,85
373,76	7,63
373,97	9,83
374,18	8,35
374,39	7,27
374,60	13,47
374,81	1,13
375,01	19,40
375,22	4,76
375,43	8,76
375,64	-0,10
375,85	9,37
376,06	15,92
376,27	10,34
376,48	2,87
376,69	2,76
376,90	6,25
377,11	-9,57
377,32	4,10
377,53	-4,40
377,74	4,81
377,94	10,44
378,15	6,96
378,36	-11,11
378,57	2,56
378,78	6,20
378,99	10,85
379,20	3,02
379,41	-3,28
379,62	6,96
379,83	7,27
380,04	2,25
380,25	15,05
380,45	21,61
380,66	2,10
380,87	17,25
381,08	0,51
381,29	-5,84
381,50	19,51
381,71	5,58
381,92	15,67
382,13	7,22
382,34	6,96
382,55	1,95
382,75	8,55
382,96	14,49
383,17	-3,38
383,38	5,58
383,59	8,76
383,80	20,89
384,01	4,71
384,22	14,08
384,43	7,99
384,63	9,52
384,84	19,05
385,05	5,99
385,26	12,65
385,47	5,84
385,68	5,07
385,89	11,78
386,10	5,84
386,30	16,23
386,51	-7,17
386,72	15,05
386,93	21,15
387,14	5,89
387,35	12,80
387,56	19,51
387,77	9,32
387,97	2,20
388,18	-1,33
388,39	10,09
388,60	3,53
388,81	17,25
389,02	5,43
389,23	14,54
389,43	6,04
389,64	0,67
389,85	10,96
390,06	-3,02
390,27	-1,48
390,48	0,51
390,69	18,38
390,89	-3,48
391,10	11,57
391,31	15,97
391,52	3,12
391,73	6,91
391,94	8,86
392,14	3,84
392,35	-1,13
392,56	2,15
392,77	-5,84
392,98	3,02
393,19	10,85
393,39	13,57
393,60	8,86
393,81	11,47
394,02	5,22
394,23	-2,20
394,44	-11,21
394,64	-6,25
394,85	6,45
395,06	-4,76
395,27	21,15
395,48	-6,40
395,69	17,77
395,89	-7,58
396,10	3,33
396,31	5,94
396,52	-2,36
396,73	0,82
396,93	3,69
397,14	18,69
397,35	-3,23
397,56	6,14
397,77	-1,18
397,97	1,08
398,18	15,77
398,39	-0,31
398,60	11,93
398,81	17,36
399,01	16,49
399,22	3,17
399,43	-13,67
399,64	12,75
399,85	-5,07
400,05	-5,32
400,26	14,18
400,47	-4,30
400,68	2,71
400,89	4,30
401,09	4,40
401,30	20,48
401,51	8,76
401,72	19,92
401,93	20,07
402,13	20,63
402,34	3,79
402,55	3,84
402,76	5,27
402,96	6,71
403,17	-4,97
403,38	11,01
403,59	6,14
403,80	14,90
404,00	7,53
404,21	0,87
404,42	-3,38
404,63	8,45
404,83	10,44
405,04	15,46
405,25	15,46
405,46	3,23
405,66	13,41
405,87	16,64
406,08	-9,11
406,29	26,21
406,49	-3,69
406,70	2,92
406,91	10,19
407,12	-13,00
407,32	8,09
407,53	-1,48
407,74	10,60
407,95	10,29
408,15	1,38
408,36	8,65
408,57	8,76
408,78	18,74
408,98	22,53
409,19	-4,35
409,40	9,11
409,61	0,51
409,81	-11,11
410,02	-17,20
410,23	4,45
410,44	-2,20
410,64	2,36
410,85	13,21
411,06	7,22
411,26	-16,69
411,47	13,47
411,68	-5,94
411,89	13,82
412,09	16,49
412,30	-0,10
412,51	4,92
412,72	21,61
412,92	14,08
413,13	33,28
413,34	4,76
413,54	10,24
413,75	3,53
413,96	-1,13
414,17	6,09
414,37	16,38
414,58	10,14
414,79	16,08
414,99	-2,00
415,20	-6,91
415,41	0,51
415,61	12,65
415,82	7,53
416,03	14,54
416,24	6,96
416,44	0,51
416,65	21,91
416,86	12,75
417,06	-4,40
417,27	17,00
417,48	2,97
417,68	4,20
417,89	4,56
418,10	-0,61
418,30	8,14
418,51	-3,79
418,72	10,65
418,92	19,66
419,13	-0,46
419,34	10,29
419,55	-1,23
419,75	4,86
419,96	12,34
420,17	5,73
420,37	-4,35
420,58	6,25
420,79	-6,71
420,99	7,48
421,20	0,46
421,41	6,66
421,61	-11,67
421,82	16,23
422,03	-3,48
422,23	2,46
422,44	8,81
422,65	19,51
422,85	11,78
423,06	8,14
423,26	6,20
423,47	1,54
423,68	38,09
423,88	20,22
424,09	8,19
424,30	9,01
424,50	11,11
424,71	1,43
424,92	10,29
425,12	15,77
425,33	21,35
425,54	13,16
425,74	8,96
425,95	-1,33
426,15	7,88
426,36	10,44
426,57	1,33
426,77	13,41
426,98	-1,89
427,19	12,65
427,39	5,17
427,60	11,98
427,81	0,00
428,01	-4,04
428,22	6,96
428,42	19,56
428,63	2,66
428,84	23,76
429,04	12,75
429,25	12,34
429,45	12,49
429,66	31,64
429,87	1,95
430,07	-2,51
430,28	10,39
430,49	2,30
430,69	5,89
430,90	11,62
431,10	11,72
431,31	11,52
431,52	0,36
431,72	4,04
431,93	18,64
432,13	16,64
432,34	10,60
432,55	12,19
432,75	3,53
432,96	8,29
433,16	0,51
433,37	2,36
433,58	1,18
433,78	16,59
433,99	24,52
434,19	14,95
434,40	1,89
434,60	15,82
434,81	4,20
435,02	7,22
435,22	25,86
435,43	8,86
435,63	5,48
435,84	5,99
436,05	23,60
436,25	-3,64
436,46	9,32
436,66	-3,17
436,87	-1,54
437,07	13,62
437,28	10,44
437,48	13,16
437,69	6,14
437,90	12,19
438,10	15,87
438,31	9,63
438,51	-9,32
438,72	7,22
438,92	12,60
439,13	14,85
439,34	7,42
439,54	10,29
439,75	18,33
439,95	-3,17
440,16	16,03
440,36	-4,71
440,57	10,70
440,77	6,96
440,98	1,43
441,18	11,32
441,39	2,51
441,60	11,72
441,80	3,64
442,01	5,58
442,21	6,14
442,42	20,48
442,62	8,35
442,83	12,44
443,03	15,77
443,24	15,62
443,44	21,76
443,65	0,31
443,85	16,23
444,06	15,67
444,26	8,55
444,47	20,63
444,67	32,92
444,88	15,36
445,09	6,30
445,29	-4,35
445,50	4,40
445,70	30,72
445,91	-0,10
446,11	11,16
446,32	1,23
446,52	-4,04
446,73	3,38
446,93	16,28
447,14	14,39
447,34	-2,20
447,55	14,64
447,75	3,94
447,96	6,71
448,16	12,60
448,37	4,97
448,57	6,40
448,78	5,07
448,98	10,55
449,19	11,11
449,39	14,80
449,60	-2,71
449,80	-2,30
450,01	20,38
450,21	21,61
450,42	20,27
450,62	8,04
450,83	-0,46
451,03	-0,72
451,23	20,68
451,44	6,55
451,64	-5,73
451,85	18,07
452,05	4,97
452,26	3,23
452,46	21,76
452,67	22,17
452,87	22,17
453,08	15,92
453,28	21,20
453,49	6,60
453,69	18,84
453,90	18,94
454,10	26,73
454,31	2,36
454,51	2,05
454,71	10,85
454,92	19,81
455,12	5,94
455,33	-3,12
455,53	14,39
455,74	16,33
455,94	26,27
456,15	16,08
456,35	4,97
456,55	17,41
456,76	11,42
456,96	11,37
457,17	5,07
457,37	34,87
457,58	9,68
457,78	14,69
457,99	22,89
458,19	23,30
458,39	26,37
458,60	10,04
458,80	16,95
459,01	10,19
459,21	1,02
459,42	12,70
459,62	13,67
459,82	9,32
460,03	3,28
460,23	1,38
460,44	15,10
460,64	14,13
460,85	4,71
461,05	16,23
461,25	9,32
461,46	6,81
461,66	1,18
461,87	8,04
462,07	15,97
462,27	4,66
462,48	22,83
462,68	17,46
462,89	13,62
463,09	-1,33
463,29	23,45
463,50	18,84
463,70	17,20
463,91	2,71
464,11	17,15
464,31	32,31
464,52	15,67
464,72	0,77
464,93	16,38
465,13	6,14
465,33	-2,71
465,54	13,67
465,74	7,99
465,95	15,21
466,15	15,72
466,35	32,05
466,56	27,95
466,76	0,26
466,96	0,46
467,17	16,38
467,37	36,91
467,58	16,54
467,78	17,05
467,98	13,47
468,19	9,27
468,39	20,48
468,59	20,02
468,80	13,67
469,00	5,58
469,21	15,31
469,41	8,70
469,61	9,57
469,82	0,05
470,02	15,72
470,22	16,90
470,43	10,96
470,63	13,11
470,83	8,04
471,04	9,47
471,24	28,36
471,45	12,70
471,65	22,68
471,85	10,14
472,06	3,23
472,26	2,97
472,46	17,97
472,67	20,33
472,87	13,57
473,07	21,61
473,28	15,15
473,48	16,79
473,68	10,55
473,89	13,06
474,09	23,86
474,29	18,28
474,50	32,56
474,70	10,85
474,90	18,23
475,11	18,48
475,31	11,06
475,51	4,97
475,72	21,30
475,92	14,75
476,12	20,48
476,33	10,80
476,53	6,91
476,73	21,15
476,93	5,38
477,14	13,57
477,34	18,69
477,54	15,15
477,75	18,79
477,95	12,65
478,15	17,92
478,36	21,25
478,56	14,59
478,76	22,37
478,97	14,23
479,17	16,08
479,37	25,04
479,57	25,19
479,78	19,51
479,98	26,32
480,18	11,98
480,39	15,31
480,59	16,08
480,79	6,81
480,99	30,26
481,20	22,07
481,40	-4,97
481,60	25,45
481,81	13,77
482,01	11,16
482,21	15,05
482,41	17,66
482,62	23,65
482,82	7,12
483,02	19,25
483,23	24,88
483,43	17,92
483,63	27,24
483,83	17,92
484,04	5,43
484,24	16,54
484,44	18,89
484,64	22,94
484,85	18,28
485,05	10,80
485,25	10,19
485,45	36,66
485,66	24,83
485,86	16,28
486,06	20,38
486,26	6,86
486,47	16,43
486,67	12,70
486,87	12,90
487,07	15,36
487,28	-0,87
487,48	20,74
487,68	22,27
487,88	10,75
488,09	25,04
488,29	14,49
488,49	0,05
488,69	24,22
488,90	42,39
489,10	28,62
489,30	16,49
489,50	11,52
489,71	17,71
489,91	25,04
490,11	16,13
490,31	14,13
490,52	21,30
490,72	26,83
490,92	9,06
491,12	38,81
491,32	31,18
491,53	14,59
491,73	17,61
491,93	29,03
492,13	11,83
492,33	19,56
492,54	31,90
492,74	16,13
492,94	21,04
493,14	7,53
493,35	13,41
493,55	27,95
493,75	28,62
493,95	22,37
494,15	6,55
494,36	18,84
494,56	16,95
494,76	16,95
494,96	18,12
495,16	25,86
495,37	12,60
495,57	27,44
495,77	19,35
495,97	25,24
496,17	15,56
496,37	18,84
496,58	13,87
496,78	11,93
496,98	18,18
497,18	22,12
497,38	10,50
497,59	34,66
497,79	16,79
497,99	11,57
498,19	40,70
498,39	20,27
498,59	26,16
498,80	17,51
499,00	24,68
499,20	22,48
499,40	33,69
499,60	30,11
499,80	25,91
500,01	23,14
500,21	18,59
500,41	34,97
500,61	9,52
500,81	17,77
501,01	37,73
501,22	21,66
501,42	17,77
501,62	35,79
501,82	27,34
502,02	7,99
502,22	18,74
502,42	28,21
502,63	28,21
502,83	27,90
503,03	38,45
503,23	26,57
503,43	9,11
503,63	19,46
503,83	43,72
504,04	34,35
504,24	29,54
504,44	14,90
504,64	17,46
504,84	24,42
505,04	8,09
505,24	29,29
505,44	22,02
505,65	26,78
505,85	28,62
506,05	38,04
506,25	20,68
506,45	22,53
506,65	26,52
506,85	34,05
507,05	25,50
507,26	29,08
507,46	27,60
507,66	36,04
507,86	36,30
508,06	27,80
508,26	28,98
508,46	45,06
508,66	35,43
508,86	39,47
509,06	53,61
509,27	31,13
509,47	41,42
509,67	29,03
509,87	42,44
510,07	38,91
510,27	37,12
510,47	40,19
510,67	46,34
510,87	35,58
511,07	37,73
511,28	45,06
511,48	30,98
511,68	35,28
511,88	45,93
512,08	33,59
512,28	22,48
512,48	29,44
512,68	39,22
512,88	44,95
513,08	42,90
513,28	41,11
513,48	40,91
513,68	41,32
513,89	30,67
514,09	45,67
514,29	41,27
514,49	35,58
514,69	53,86
514,89	57,34
515,09	58,93
515,29	53,45
515,49	48,28
515,69	51,86
515,89	47,21
516,09	52,94
516,29	43,93
516,49	45,06
516,69	59,70
516,89	42,44
517,09	56,98
517,29	60,36
517,50	42,39
517,70	67,58
517,90	53,40
518,10	56,63
518,30	33,54
518,50	50,79
518,70	54,22
518,90	46,03
519,10	56,63
519,30	55,35
519,50	44,44
519,70	59,70
519,90	62,87
520,10	55,24
520,30	52,63
520,50	60,21
520,70	55,24
520,90	62,77
521,10	65,33
521,30	66,41
521,50	63,13
521,70	60,47
521,90	73,78
522,10	65,07
522,30	55,30
522,50	62,87
522,70	67,33
522,90	72,96
523,10	50,18
523,30	65,59
523,50	71,73
523,70	66,35
523,90	53,14
524,10	72,45
524,30	56,52
524,50	66,97
524,70	87,45
524,90	70,30
525,10	70,14
525,30	62,41
525,50	79,05
525,70	93,59
525,90	80,43
526,10	91,70
526,30	74,75
526,50	85,86
526,70	84,58
526,90	89,80
527,10	103,22
527,30	97,12
527,50	88,22
527,70	95,49
527,90	111,15
528,10	115,04
528,30	115,66
528,50	130,46
528,70	143,97
528,90	146,17
529,10	172,39
529,30	180,02
529,50	216,57
529,70	222,20
529,90	235,67
530,10	216,52
530,29	235,47
530,49	258,45
530,69	243,50
530,89	290,09
531,09	282,21
531,29	360,80
531,49	438,27
531,69	738,70
531,89	2478,20
532,09	9426,24
532,29	19256,33
532,49	29379,95
532,69	39323,46
532,89	46814,11
533,09	55940,16
533,29	56509,45
533,49	53759,44
533,68	48512,85
533,88	44116,11
534,08	38420,76
534,28	31483,88
534,48	28532,51
534,68	26508,04
534,88	22548,70
535,08	21575,25
535,28	20724,16
535,48	19011,45
535,68	16612,87
535,88	14292,77
536,08	12648,72
536,27	11916,98
536,47	10689,12
536,67	8766,48
536,87	6357,30
537,07	4283,69
537,27	2849,34
537,47	1936,25
537,67	1337,43
537,87	964,70
538,07	729,49
538,27	538,56
538,46	430,28
538,66	373,60
538,86	317,28
539,06	271,20
539,26	237,31
539,46	203,16
539,66	186,06
539,86	173,97
540,06	172,23
540,25	156,26
540,45	144,89
540,65	131,94
540,85	109,41
541,05	98,56
541,25	98,20
541,45	109,36
541,65	88,78
541,85	76,03
542,04	69,89
542,24	68,91
542,44	60,52
542,64	80,49
542,84	48,38
543,04	65,43
543,24	57,70
543,43	58,16
543,63	47,46
543,83	43,16
544,03	32,56
544,23	44,03
544,43	40,19
544,63	40,65
544,82	55,24
545,02	58,52
545,22	32,46
545,42	40,60
545,62	54,12
545,82	28,67
546,02	54,68
546,21	34,10
546,41	37,22
546,61	41,93
546,81	32,87
547,01	55,86
547,21	24,22
547,40	38,55
547,60	30,62
547,80	19,40
548,00	43,67
548,20	51,92
548,40	38,09
548,59	31,28
548,79	33,07
548,99	29,23
549,19	43,11
549,39	35,23
549,59	32,15
549,78	28,93
549,98	39,12
550,18	23,76
550,38	33,18
550,58	32,46
550,77	22,78
550,97	37,32
551,17	32,10
551,37	24,42
551,57	31,33
551,76	31,23
551,96	31,13
552,16	27,85
552,36	27,39
552,56	33,95
552,75	40,14
552,95	29,70
553,15	34,20
553,35	50,84
553,55	27,24
553,74	29,29
553,94	35,23
554,14	23,50
554,34	21,04
554,54	24,99
554,73	10,85
554,93	22,43
555,13	43,16
555,33	25,04
555,53	24,37
555,72	26,06
555,92	28,16
556,12	44,70
556,32	18,38
556,51	27,44
556,71	23,91
556,91	4,92
557,11	24,22
557,30	23,45
557,50	23,30
557,70	41,11
557,90	24,17
558,10	24,01
558,29	17,46
558,49	28,26
558,69	20,63
558,89	30,31
559,08	17,25
559,28	26,62
559,48	19,61
559,68	28,62
559,87	11,47
560,07	22,27
560,27	30,87
560,47	24,52
560,66	19,30
560,86	26,16
561,06	16,84
561,25	26,98
561,45	31,95
561,65	19,15
561,85	28,77
562,04	17,46
562,24	22,58
562,44	26,37
562,64	15,10
562,83	2,30
563,03	8,50
563,23	35,33
563,42	36,91
563,62	20,94
563,82	10,24
564,02	7,99
564,21	27,80
564,41	16,18
564,61	21,04
564,80	26,32
565,00	14,34
565,20	6,96
565,40	28,01
565,59	23,14
565,79	21,50
565,99	12,54
566,18	23,24
566,38	9,78
566,58	19,15
566,78	19,87
566,97	17,31
567,17	27,19
567,37	24,32
567,56	23,19
567,76	6,66
567,96	12,80
568,15	26,42
568,35	11,42
568,55	21,25
568,74	11,88
568,94	11,67
569,14	21,40
569,33	-0,20
569,53	32,97
569,73	5,53
569,92	24,37
570,12	18,74
570,32	14,54
570,52	15,87
570,71	12,85
570,91	10,09
571,11	3,53
571,30	0,46
571,50	7,42
571,70	10,19
571,89	15,82
572,09	11,52
572,28	16,13
572,48	15,41
572,68	16,84
572,87	15,15
573,07	18,74
573,27	9,22
573,46	12,49
573,66	29,85
573,86	14,13
574,05	5,02
574,25	10,04
574,45	12,60
574,64	27,03
574,84	14,34
575,04	9,68
575,23	6,35
575,43	23,55
575,62	5,07
575,82	18,12
576,02	10,91
576,21	21,96
576,41	13,11
576,61	3,69
576,80	13,77
577,00	24,42
577,19	14,34
577,39	10,80
577,59	16,90
577,78	10,60
577,98	14,59
578,18	12,75
578,37	20,53
578,57	9,32
578,76	9,73
578,96	25,70
579,16	-9,68
579,35	25,24
579,55	17,71
579,74	8,40
579,94	18,99
580,14	17,82
580,33	21,81
580,53	11,93
580,72	8,35
580,92	9,68
581,12	18,84
581,31	27,44
581,51	21,81
581,70	15,77
581,90	1,84
582,10	0,05
582,29	11,52
582,49	10,85
582,68	26,93
582,88	13,00
583,07	32,72
583,27	24,68
583,47	4,04
583,66	12,29
583,86	22,73
584,05	16,64
584,25	-0,15
584,44	13,62
584,64	15,00
584,84	3,74
585,03	9,73
585,23	13,31
585,42	20,02
585,62	10,85
585,81	4,51
586,01	18,23
586,20	18,89
586,40	-5,94
586,60	12,90
586,79	11,72
586,99	6,04
587,18	12,65
587,38	14,90
587,57	4,76
587,77	15,41
587,96	10,50
588,16	3,17
588,35	22,78
588,55	30,21
588,75	22,83
588,94	-4,30
589,14	-2,51
589,33	-1,02
589,53	-5,02
589,72	-3,53
589,92	-22,68
590,11	-28,21
590,31	-7,53
590,50	-6,35
590,70	-9,06
590,89	-1,54
591,09	-9,88
591,28	-0,82
591,48	7,78
591,67	14,34
591,87	9,16
592,06	20,99
592,26	20,27
592,45	12,34
592,65	-1,89
592,84	18,53
593,04	8,60
593,23	16,18
593,43	-1,33
593,62	9,57
593,82	-5,58
594,01	13,00
594,21	-3,69
594,40	3,12
594,60	-0,20
594,79	9,11
594,99	8,76
595,18	8,91
595,38	11,06
595,57	-3,89
595,77	-2,15
595,96	12,90
596,16	10,14
596,35	20,63
596,55	4,20
596,74	-0,15
596,94	8,91
597,13	11,47
597,33	3,17
597,52	9,47
597,72	4,66
597,91	1,43
598,11	13,36
598,30	-0,61
598,50	4,30
598,69	-0,31
598,88	32,61
599,08	-4,10
599,27	-13,62
599,47	-2,00
599,66	24,58
599,86	4,97
600,05	7,17
600,25	4,86
600,44	0,26
600,64	18,69
600,83	10,75
601,02	7,42
601,22	10,91
601,41	3,53
601,61	8,19
601,80	5,22
602,00	3,64
602,19	14,85
602,38	18,02
602,58	7,32
602,77	3,07
602,97	10,80
603,16	17,00
603,36	3,23
603,55	11,78
603,74	0,05
603,94	1,28
604,13	13,26
604,33	2,76
604,52	19,15
604,72	-11,32
604,91	4,30
605,10	10,39
605,30	1,79
605,49	-6,91
605,69	-3,58
605,88	13,67
606,07	-2,05
606,27	-10,14
606,46	-4,51
606,66	-2,41
606,85	-6,66
607,04	6,25
607,24	-10,91
607,43	15,62
607,63	-0,61
607,82	-2,46
608,01	-9,11
608,21	10,04
608,40	-15,87
608,60	-6,91
608,79	11,72
608,98	-6,09
609,18	0,31
609,37	10,24
609,57	-0,05
609,76	13,11
609,95	-0,10
610,15	-3,33
610,34	-5,48
610,53	2,51
610,73	6,30
610,92	-3,48
611,11	14,75
611,31	0,67
611,50	7,32
611,70	5,48
611,89	-9,42
612,08	6,81
612,28	-1,33
612,47	1,13
612,66	-10,24
612,86	-4,45
613,05	6,71
613,24	-3,33
613,44	1,89
613,63	-2,51
613,82	-4,40
614,02	3,84
614,21	-11,72
614,41	-4,81
614,60	-3,33
614,79	-9,16
614,99	-6,40
615,18	-2,97
615,37	-19,05
615,57	9,88
615,76	-18,89
615,95	-5,53
616,15	8,35
616,34	12,85
616,53	-16,33
616,73	-14,85
616,92	6,25
617,11	-5,48
617,30	10,60
617,50	1,28
617,69	-4,04
617,88	-1,43
618,08	-2,41
618,27	-5,63
618,46	-6,76
618,66	11,52
618,85	-0,36
619,04	-2,92
619,24	4,35
619,43	5,32
619,62	-8,86
619,82	2,10
620,01	-13,98
620,20	4,76
620,39	9,88
620,59	3,79
620,78	13,26
620,97	-21,15
621,17	0,36
621,36	6,25
621,55	-1,64
621,74	1,38
621,94	1,33
622,13	0,56
622,32	-0,05
622,52	-21,04
622,71	-7,63
622,90	-0,20
623,09	-0,05
623,29	-16,28
623,48	-10,80
623,67	3,53
623,86	-8,14
624,06	-0,77
624,25	-0,56
624,44	-6,55
624,64	-4,20
624,83	-10,91
625,02	-8,96
625,21	-0,41
625,41	2,36
625,60	-16,28
625,79	-6,66
625,98	0,97
626,18	-5,79
626,37	0,41
626,56	-3,28
626,75	-9,27
626,95	-1,89
627,14	-12,19
627,33	-4,71
627,52	-17,00
627,72	0,10
627,91	8,70
628,10	-1,08
628,29	-13,57
628,49	2,87
628,68	-1,33
628,87	-13,57
629,06	5,53
629,25	-5,89
629,45	-2,00
629,64	-1,48
629,83	-13,41
630,02	-22,63
630,22	5,17
630,41	5,12
630,60	6,20
630,79	6,14
630,98	-18,53
631,18	-8,55
631,37	-13,21
631,56	-1,89
631,75	-19,87
631,94	-9,52
632,14	-18,43
632,33	-10,91
632,52	4,35
632,71	17,56
632,90	-27,95
633,10	-0,41
633,29	2,82
633,48	-22,07
633,67	-12,44
633,86	-2,30
634,06	-22,58
634,25	-11,98
634,44	-8,04
634,63	-5,22
634,82	3,58
635,02	-6,14
635,21	3,58
635,40	-13,21
635,59	7,53
635,78	-9,16
635,97	-10,04
636,17	1,95
636,36	-14,08
636,55	3,79
636,74	-2,82
636,93	-15,92
637,12	-15,26
637,32	-11,06
637,51	-11,42
637,70	-15,05
637,89	-5,17
638,08	-17,00
638,27	-8,70
638,47	-28,36
638,66	-8,91
638,85	-19,87
639,04	-21,50
639,23	-11,16
639,42	-15,31
639,62	-4,20
639,81	-14,13
640,00	-16,18
640,19	-23,19
640,38	-30,92
640,57	-9,63
640,76	-8,70
640,95	-18,69
641,15	-5,79
641,34	-7,22
641,53	-7,83
641,72	-14,44
641,91	-9,83
642,10	-15,21
642,29	-5,43
642,49	-11,11
642,68	-13,67
642,87	-14,80
643,06	0,10
643,25	-13,31
643,44	-5,12
643,63	-19,30
643,82	-15,62
644,01	-8,96
644,21	-10,44
644,40	-34,51
644,59	-22,48
644,78	-6,76
644,97	-12,19
645,16	-0,61
645,35	-23,04
645,54	-7,27
645,73	-3,43
645,92	-20,99
646,12	-23,04
646,31	-5,12
646,50	-9,78
646,69	-1,02
646,88	0,31
647,07	-7,07
647,26	-10,60
647,45	-1,95
647,64	-6,91
647,83	-4,20
648,02	-15,36
648,22	-17,56
648,41	-22,27
648,60	-2,46
648,79	-11,83
648,98	-5,73
649,17	-12,54
649,36	-15,10
649,55	-10,70
649,74	-2,76
649,93	-5,17
650,12	-12,03
650,31	-26,32
650,50	-9,63
650,69	-1,69
650,88	-16,43
651,08	-15,77
651,27	2,00
651,46	-12,60
651,65	-4,10
651,84	-24,42
652,03	-9,63
652,22	1,23
652,41	-10,29
652,60	-14,49
652,79	-18,43
652,98	-13,77
653,17	-11,98
653,36	-10,50
653,55	-21,04
653,74	-24,68
653,93	-9,63
654,12	-16,69
654,31	-22,58
654,50	-18,43
654,69	-13,36
654,88	-27,29
655,07	-22,32
655,26	-15,62
655,45	-10,75
655,64	-20,12
655,83	-12,60
656,02	-5,27
656,21	-21,81
656,40	-17,05
656,59	-7,37
656,78	-26,06
656,97	-7,94
657,17	-12,60
657,36	-17,36
657,55	-9,16
657,74	-18,79
657,93	-18,84
658,12	-11,93
658,31	-16,03
658,50	-14,85
658,69	-15,00
658,87	11,98
659,06	-10,96
659,25	5,02
659,44	-11,62
659,63	-17,61
659,82	-10,55
660,01	-17,25
660,20	-12,03
660,39	5,07
660,58	3,53
660,77	-16,69
660,96	-34,35
661,15	-2,82
661,34	-16,69
661,53	-30,67
661,72	-16,79
661,91	-11,83
662,10	-24,88
662,29	-6,04
662,48	-20,63
662,67	-34,25
662,86	-25,14
663,05	-39,88
663,24	-18,89
663,43	-30,11
663,62	-0,31
663,81	-15,05
664,00	-11,57
664,19	-17,15
664,38	-20,84
664,57	-10,09
664,76	-26,16
664,94	-14,64
665,13	-22,83
665,32	-15,41
665,51	-14,39
665,70	-2,82
665,89	-2,30
666,08	-12,65
666,27	-13,41
666,46	-8,14
666,65	-13,82
666,84	-24,01
667,03	-16,38
667,22	-29,03
667,41	-22,89
667,60	-13,77
667,78	-25,29
667,97	2,15
668,16	-21,25
668,35	-31,23
668,54	-3,89
668,73	-17,82
668,92	-22,68
669,11	-3,23
669,30	-9,16
669,49	-3,89
669,68	-12,90
669,86	-38,25
670,05	-32,15
670,24	-6,81
670,43	-22,78
670,62	-25,34
670,81	-17,82
671,00	-17,00
671,19	-18,53
671,38	-16,28
671,57	-22,12
671,75	-21,55
671,94	-10,04
672,13	-20,58
672,32	-16,90
672,51	-21,71
672,70	-13,57
672,89	-24,78
673,08	-15,56
673,26	-10,55
673,45	-19,46
673,64	-1,48
673,83	-6,55
674,02	-28,77
674,21	-13,67
674,40	-7,99
674,59	-16,69
674,77	-19,71
674,96	-26,37
675,15	-15,67
675,34	-8,70
675,53	-17,87
675,72	-28,47
675,91	-15,21
676,09	-21,81
676,28	-29,29
676,47	-7,99
676,66	-15,82
676,85	-16,69
677,04	-12,75
677,22	-19,51
677,41	-14,23
677,60	-16,74
677,79	-15,82
677,98	-13,41
678,17	-18,94
678,36	-13,52
678,54	-12,44
678,73	-19,35
678,92	-14,69
679,11	-15,87
679,30	-16,13
679,48	-15,97
679,67	-11,78
679,86	-40,19
680,05	-18,69
680,24	-22,94
680,43	-23,81
680,61	-8,81
680,80	-19,87
680,99	-13,67
681,18	-14,34
681,37	-16,23
681,55	-32,00
681,74	-9,52
681,93	-8,45
682,12	-23,65
682,31	-31,54
682,49	-13,57
682,68	-18,23
682,87	-26,78
683,06	-20,68
683,25	-20,99
683,43	-32,41
683,62	-32,51
683,81	-26,37
684,00	-16,33
684,19	-13,16
684,37	-16,38
684,56	-23,35
684,75	-29,90
684,94	-14,28
685,12	-22,99
685,31	-32,20
685,50	-22,63
685,69	-25,04
685,88	-25,14
686,06	-18,07
686,25	-9,63
686,44	-21,81
686,63	-27,29
686,81	-17,71
687,00	-9,22
687,19	-19,15
687,38	-5,58
687,56	-1,54
687,75	-4,81
687,94	-8,65
688,13	-3,99
688,31	1,33
688,50	-12,95
688,69	-21,25
688,88	-3,02
689,06	-16,03
689,25	-9,52
689,44	-5,43
689,63	-4,35
689,81	-13,82
690,00	-6,71
690,19	-5,07
690,38	-23,24
690,56	-17,87
690,75	-20,48
690,94	-17,46
691,13	-15,36
691,31	-20,58
691,50	-10,34
691,69	-27,14
691,87	-11,78
692,06	-13,16
692,25	-26,52
692,44	-20,27
692,62	-18,59
692,81	-7,99
693,00	-10,24
693,18	-19,87
693,37	-32,77
693,56	-18,53
693,75	-27,14
693,93	-6,25
694,12	0,36
694,31	-15,82
694,49	-25,70
694,68	-8,45
694,87	-17,92
695,05	-13,47
695,24	-18,99
695,43	-21,61
695,62	-13,62
695,80	-23,14
695,99	-29,29
696,18	-8,14
696,36	-20,07
696,55	-10,44
696,74	-28,21
696,92	-3,79
697,11	-28,42
697,30	-12,29
697,48	-7,17
697,67	-13,77
697,86	-35,69
698,04	-30,21
698,23	-10,85
698,42	-17,61
698,60	-12,03
698,79	-15,00
698,98	-27,19
699,16	-21,71
699,35	-23,81
699,54	-22,32
699,72	-13,52
699,91	-25,45
700,10	-24,37
700,28	-5,89
700,47	-28,67
700,66	-24,42
700,84	-30,57
701,03	-27,24
701,21	-21,35
701,40	-13,67
701,59	-40,45
701,77	-12,75
701,96	-16,33
702,15	-25,55
702,33	-20,84
702,52	-5,32
702,71	-17,25
702,89	-34,10
703,08	-11,06
703,26	-20,74
703,45	-13,36
703,64	-31,54
703,82	-20,27
704,01	-18,79
704,20	-27,34
704,38	-31,54
704,57	-19,71
704,75	-12,65
704,94	-14,44
705,13	-21,86
705,31	-21,09
705,50	-15,36
705,68	-17,56
705,87	-18,89
706,06	-25,91
706,24	-8,50
706,43	-21,86
706,61	-30,62
706,80	-23,65
706,99	-34,30
707,17	-18,07
707,36	-22,27
707,54	-28,21
707,73	-20,12
707,92	-19,71
708,10	-23,24
708,29	-17,10
708,47	-20,74
708,66	-25,24
708,84	-17,92
709,03	-28,16
709,22	-24,73
709,40	-33,33
709,59	-21,86
709,77	-13,36
709,96	-26,42
710,14	-26,01
710,33	-15,56
710,52	-18,12
710,70	-11,83
710,89	-23,60
711,07	-35,48
711,26	-29,29
711,44	-14,13
711,63	-13,77
711,81	-21,81
712,00	-29,59
712,19	-33,74
712,37	-23,35
712,56	-31,54
712,74	-21,91
712,93	-21,66
713,11	-9,27
713,30	-17,92
713,48	-24,22
713,67	-23,81
713,85	-8,96
714,04	-32,10
714,22	-28,98
714,41	-23,71
714,59	-27,60
714,78	-37,02
714,97	-20,12
715,15	-16,79
715,34	-20,48
715,52	-32,87
715,71	-22,68
715,89	-9,22
716,08	-16,64
716,26	-11,78
716,45	-31,79
716,63	-19,87
716,82	-19,30
717,00	-19,40
717,19	-22,99
717,37	-25,96
717,56	-8,81
717,74	-26,57
717,93	-13,67
718,11	-12,60
718,30	-21,76
718,48	-31,95
718,67	-24,22
718,85	-5,43
719,04	-35,28
719,22	-20,94
719,41	-32,72
719,59	-5,79
719,78	-22,73
719,96	-22,02
720,15	-12,03
720,33	-14,75
720,52	-21,25
720,70	-8,96
720,88	-0,31
721,07	-16,90
721,25	-12,70
721,44	-12,70
721,62	-15,26
721,81	-27,65
721,99	-15,46
722,18	-10,85
722,36	-22,02
722,55	-11,62
722,73	-12,44
722,92	-26,88
723,10	-18,89
723,28	-7,94
723,47	-20,53
723,65	-20,02
723,84	-14,34
724,02	-13,26
724,21	-15,05
724,39	-5,22
724,58	-19,20
724,76	-20,12
724,94	-11,72
725,13	-12,49
725,31	-36,56
725,50	-18,12
725,68	-10,96
725,87	-7,48
726,05	-18,33
726,23	-11,67
726,42	-6,96
726,60	-17,10
726,79	-13,47
726,97	-10,55
727,16	-14,64
727,34	-20,27
727,52	-2,10
727,71	-22,32
727,89	-24,27
728,08	-22,89
728,26	-16,49
728,44	-10,80
728,63	-12,54
728,81	-20,63
729,00	-2,41
729,18	-20,17
729,36	-13,06
729,55	-29,90
729,73	-10,14
729,92	-14,23
730,10	2,30
730,28	7,37
730,47	-7,27
730,65	-13,82
730,84	-15,00
731,02	-14,44
731,20	-0,97
731,39	-24,58
731,57	-10,75
731,75	-18,74
731,94	-10,85
732,12	-21,96
732,31	-6,09
732,49	-7,78
732,67	-4,71
732,86	-8,91
733,04	-25,55
733,22	-9,52
733,41	-29,54
733,59	-7,12
733,78	-13,26
733,96	-15,62
734,14	-14,95
734,33	-26,98
734,51	-31,54
734,69	-20,48
734,88	-32,20
735,06	-8,14
735,24	-23,30
735,43	-11,52
735,61	-26,01
735,79	-19,30
735,98	-22,32
736,16	-12,90
736,34	-6,86
736,53	-12,85
736,71	-19,51
736,89	-19,05
737,08	-37,02
737,26	-13,11
737,44	-22,02
737,63	-24,42
737,81	-18,79
737,99	-21,91
738,18	-15,82
738,36	-33,38
738,54	-22,58
738,73	-30,11
738,91	-18,33
739,09	-17,51
739,28	-22,78
739,46	-42,19
739,64	-10,65
739,82	-22,27
740,01	-19,81
740,19	-22,53
740,37	-14,54
740,56	-17,66
740,74	-27,95
740,92	-17,05
741,11	-18,94
741,29	-19,30
741,47	-20,33
741,65	-19,35
741,84	-16,64
742,02	-26,93
742,20	-38,81
742,39	-28,77
742,57	-15,36
742,75	-17,77
742,93	-16,43
743,12	-24,22
743,30	-20,17
743,48	-23,65
743,67	-18,74
743,85	-21,20
744,03	-16,69
744,21	-17,25
744,40	-30,87
744,58	-5,73
744,76	-14,49
744,94	-15,56
745,13	-10,80
745,31	-19,66
745,49	-20,38
745,67	-33,64
745,86	-16,69
746,04	-8,19
746,22	-21,91
746,40	-24,22
746,59	-22,48
746,77	-41,98
746,95	-16,23
747,13	-28,11
747,32	-25,45
747,50	-16,28
747,68	-12,85
747,86	-12,29
748,05	-23,04
748,23	-24,88
748,41	-38,55
748,59	-7,73
748,77	-13,82
748,96	-21,71
749,14	-21,71
749,32	-11,26
749,50	-20,84
749,69	-27,55
749,87	-28,98
750,05	-30,51
750,23	-20,84
750,41	-20,94
750,60	-23,24
750,78	-11,88
750,96	-25,70
751,14	0,26
751,32	-21,04
751,51	-12,75
751,69	-28,26
751,87	-22,17
752,05	-15,77
752,23	-21,50
752,42	-16,33
752,60	-21,40
752,78	-29,85
752,96	-25,19
753,14	1,18
753,33	-23,76
753,51	-19,46
753,69	-18,79
753,87	-34,51
754,05	-16,84
754,23	-14,23
754,42	-25,39
754,60	-8,40
754,78	-31,79
754,96	-26,27
755,14	-21,50
755,32	-13,16
755,51	-18,48
755,69	-16,69
755,87	-16,13
756,05	-10,44
756,23	-14,90
756,41	-30,36
756,60	-9,47
756,78	-19,81
756,96	-12,29
757,14	-32,56
757,32	-11,83
757,50	-29,39
757,68	-31,23
757,87	-23,14
758,05	-14,23
758,23	-19,05
758,41	-11,88
758,59	-31,03
758,77	-22,32
758,95	-9,88
759,14	-5,48
759,32	-13,06
759,50	-28,83
759,68	7,78
759,86	-4,76
760,04	5,02
760,22	3,64
760,40	-9,73
760,59	-4,20
760,77	10,75
760,95	0,97
761,13	5,89
761,31	9,37
761,49	-3,84
761,67	13,31
761,85	-0,36
762,03	-11,83
762,22	3,99
762,40	11,42
762,58	14,95
762,76	-14,28
762,94	-0,82
763,12	-1,33
763,30	-20,27
763,48	-12,80
763,66	-3,79
763,84	0,15
764,02	-19,25
764,21	-5,94
764,39	-3,84
764,57	2,10
764,75	-7,48
764,93	1,84
765,11	4,66
765,29	-2,15
765,47	-2,66
765,65	3,74
765,83	-18,38
766,01	-6,66
766,19	-9,78
766,37	-20,74
766,56	0,00
766,74	-2,66
766,92	-33,28
767,10	-10,91
767,28	-7,78
767,46	-1,38
767,64	-18,89
767,82	-6,45
768,00	-13,41
768,18	-23,81
768,36	-8,91
768,54	4,35
768,72	-23,81
768,90	-25,09
769,08	-22,99
769,26	-27,03
769,44	-12,13
769,62	-21,66
769,80	-30,77
769,98	-20,43
770,16	-25,70
770,34	-24,83
770,52	-15,56
770,71	-21,40
770,89	-7,63
771,07	-8,70
771,25	-17,56
771,43	-22,58
771,61	-25,34
771,79	-20,22
771,97	-30,57
772,15	-32,87
772,33	-28,72
772,51	-26,27
772,69	-21,76
772,87	-24,63
773,05	-4,61
773,23	-11,37
773,41	-16,79
773,59	-16,03
773,77	-17,71
773,95	-25,34
774,13	-20,43
774,31	-10,50
774,49	-17,05
774,67	-20,27
774,85	-19,46
775,03	-26,01
775,21	-3,02
775,39	-12,44
775,57	-11,93
775,75	-15,92
775,93	-22,32
776,10	-24,22
776,28	-14,08
776,46	-7,12
776,64	-16,54
776,82	-9,93
777,00	1,08
777,18	-20,07
777,36	-13,16
777,54	-25,65
777,72	-15,00
777,90	-30,00
778,08	-6,14
778,26	-12,39
778,44	-3,33
778,62	-24,83
778,80	-4,35
778,98	-5,89
779,16	-17,87
779,34	-15,56
779,52	-19,20
779,70	-2,87
779,88	-19,30
780,05	-15,77
780,23	-16,18
780,41	-10,60
780,59	-18,38
780,77	-17,61
780,95	-21,91
781,13	-17,71
781,31	-25,04
781,49	-5,27
781,67	-2,46
781,85	-22,43
782,03	-30,21
782,21	-7,78
782,39	-20,43
782,56	-21,96
782,74	-4,25
782,92	-15,15
783,10	-18,02
783,28	-16,90
783,46	-13,00
783,64	-13,11
783,82	-16,74
784,00	-18,07
784,18	-2,15
784,35	-14,59
784,53	7,01
784,71	-9,78
784,89	-16,23
785,07	-9,73
785,25	-7,63
785,43	-11,83
785,61	-15,21
785,79	-21,91
785,96	-6,25
786,14	-21,04
786,32	-5,58
786,50	-13,93
786,68	-12,65
786,86	-28,01
787,04	-11,26
787,22	-8,45
787,39	-21,96
787,57	-21,30
787,75	-3,69
787,93	-8,40
788,11	2,46
788,29	-13,67
788,47	-20,99
788,65	-10,24
788,82	-3,69
789,00	-24,22
789,18	-18,28
789,36	-24,47
789,54	-28,42
789,72	-3,58
789,89	-25,19
790,07	-8,19
790,25	11,98
790,43	3,12
790,61	-3,79
790,79	-27,90
790,96	-22,68
791,14	-12,60
791,32	-28,83
791,50	1,74
791,68	1,59
791,86	-2,00
792,03	-6,14
792,21	13,21
792,39	-13,62
792,57	-0,67
792,75	-18,33
792,93	-1,74
793,10	-7,48
793,28	0,15
793,46	-13,21
793,64	-17,31
793,82	-6,40
793,99	-6,09
794,17	-1,95
794,35	-10,39
794,53	-7,07
794,71	0,20
794,88	-5,32
795,06	-0,87
795,24	-21,66
795,42	-5,58
795,60	-20,43
795,77	14,69
795,95	-13,52
796,13	-4,30
796,31	-9,73
796,49	-5,99
796,66	-3,53
796,84	-2,97
797,02	-17,87
797,20	-15,21
797,37	-3,53
797,55	-12,70
797,73	-15,72
797,91	0,56
798,08	-12,13
798,26	-5,48
798,44	-11,47
798,62	-10,50
798,80	-6,45
798,97	-14,64
799,15	-4,61
799,33	-2,82
799,51	-10,09
799,68	-9,93
799,86	-24,58
800,04	-2,51
800,22	-6,35
800,39	-31,18
800,57	-4,76
800,75	7,27
800,93	-13,77
801,10	2,05
801,28	-16,59
801,46	-7,17
801,63	7,01
801,81	-30,67
801,99	0,36
802,17	-17,20
802,34	-12,70
802,52	-18,48
802,70	-12,60
802,88	-3,74
803,05	-14,44
803,23	10,55
803,41	-13,47
803,58	3,33
803,76	14,03
803,94	-8,96
804,12	-4,71
804,29	-0,56
804,47	4,76
804,65	-4,25
804,82	-5,07
805,00	5,53
805,18	-5,12
805,35	-5,68
805,53	6,30
805,71	-15,15
805,89	-18,07
806,06	3,02
806,24	-11,62
806,42	-6,96
806,59	-7,68
806,77	-3,53
806,95	-14,95
807,12	-9,73
807,30	14,03
807,48	-10,75
807,65	2,71
807,83	-3,94
808,01	6,96
808,18	7,07
808,36	7,17
808,54	-0,05
808,71	-16,54
808,89	-14,08
809,07	-9,78
809,24	-10,39
809,42	-10,65
809,60	-3,12
809,77	-11,32
809,95	2,71
810,13	-16,54
810,30	-8,40
810,48	8,24
810,66	-6,81
810,83	-9,52
811,01	-9,06
811,18	-4,81
811,36	-15,72
811,54	-3,28
811,71	-11,21
811,89	-6,55
812,07	-15,36
812,24	-7,78
812,42	-6,30
812,59	5,22
812,77	3,23
812,95	-1,13
813,12	-15,31
813,30	-8,29
813,48	-3,43
813,65	-12,13
813,83	-0,26
814,00	-1,02
814,18	-0,51
814,36	-2,82
814,53	-2,87
814,71	6,09
814,88	-14,13
815,06	16,08
815,24	-14,54
815,41	-7,68
815,59	14,23
815,76	6,91
815,94	0,20
816,12	8,19
816,29	-8,29
816,47	-9,22
816,64	0,67
816,82	17,20
817,00	3,28
817,17	-13,31
817,35	0,56
817,52	-12,70
817,70	-4,76
817,87	-10,44
818,05	-11,32
818,23	-9,37
818,40	-1,84
818,58	-17,71
818,75	-12,03
818,93	-27,65
819,10	-13,26
819,28	-5,84
819,46	-24,32
819,63	-31,49
819,81	-11,37
819,98	-8,70
820,16	-12,24
820,33	2,10
820,51	-9,11
820,68	6,30
820,86	-1,79
821,03	2,41
821,21	8,04
821,39	5,63
821,56	-3,43
821,74	-11,52
821,91	4,04
822,09	-2,87
822,26	12,24
822,44	-3,23
822,61	-2,05
822,79	-16,90
822,96	-6,86
823,14	6,81
823,31	-17,82
823,49	4,81
823,66	-5,68
823,84	-10,24
824,01	3,64
824,19	-10,80
824,36	-15,46
824,54	-3,69
824,71	4,30
824,89	-0,77
825,06	0,31
825,24	1,69
825,41	1,69
825,59	-9,22
825,76	5,12
825,94	-8,04
826,11	9,06
826,29	19,30
826,46	0,72
826,64	11,67
826,81	0,51
826,99	-5,79
827,16	-3,02
827,34	-20,38
827,51	4,97
827,69	0,46
827,86	11,11
828,04	5,22
828,21	-7,42
828,39	-3,33
828,56	-10,85
828,74	-5,38
828,91	-4,51
829,09	-10,34
829,26	-11,21
829,43	-7,63
829,61	-11,16
829,78	-11,98
829,96	-13,47
830,13	-0,51
830,31	-8,24
830,48	-15,56
830,66	1,48
830,83	15,10
831,01	6,71
831,18	5,58
831,35	19,30
831,53	3,53
831,70	-2,20
831,88	3,43
832,05	14,13
832,23	-5,63
832,40	14,03
832,57	1,18
832,75	-11,78
832,92	-11,67
833,10	-2,25
833,27	-4,92
833,45	-8,09
833,62	-8,19
833,79	2,56
833,97	3,69
834,14	-9,27
834,32	-1,74
834,49	-8,19
834,66	-9,63
834,84	-13,77
835,01	-9,01
835,19	-9,88
835,36	-6,20
835,53	0,97
835,71	-3,84
835,88	-7,22
836,06	-22,78
836,23	-19,51
836,40	-3,94
836,58	7,88
836,75	-7,27
836,93	8,14
837,10	-10,91
837,27	-0,72
837,45	-5,38
837,62	-18,18
837,79	-0,31
837,97	-8,40
838,14	-8,65
838,32	-8,14
838,49	-4,51
838,66	8,60
838,84	15,46
839,01	-10,55
839,18	-3,43
839,36	21,09
839,53	-4,30
839,70	-1,79
839,88	14,13
840,05	-6,76
840,23	-0,97
840,40	-2,92
840,57	7,37
840,75	-11,37
840,92	5,48
841,09	8,55
841,27	4,51
841,44	-6,91
841,61	-7,22
841,79	-0,15
841,96	-6,55
842,13	2,30
842,31	-16,90
842,48	-15,31
842,65	-3,94
842,83	2,30
843,00	-8,35
843,17	8,50
843,35	-3,58
843,52	-4,45
843,69	-5,53
843,86	-13,67
844,04	8,76
844,21	5,99
844,38	8,91
844,56	6,09
844,73	17,41
844,90	-0,92
845,08	3,84
845,25	5,68
845,42	-3,58
845,60	-0,87
845,77	-0,92
845,94	0,41
846,11	-16,43
846,29	1,13
846,46	-6,71
846,63	5,68
846,81	2,30
846,98	12,49
847,15	-2,56
847,32	-2,15
847,50	-1,08
847,67	2,66
847,84	-16,84
848,01	-1,74
848,19	-0,36
848,36	2,76
848,53	-14,08
848,71	14,39
848,88	-10,39
849,05	0,26
849,22	-8,29
849,40	7,27
849,57	-14,54
849,74	2,66
849,91	8,55
850,09	-2,00
850,26	-1,95
850,43	-12,75
850,60	-3,23
850,78	6,04
850,95	-7,01
851,12	2,05
851,29	-4,30
851,47	-0,67
851,64	0,72
851,81	0,41
851,98	-4,97
852,15	9,42
852,33	-9,83
852,50	-0,67
852,67	14,90
852,84	5,84
853,02	-12,95
853,19	-22,48
853,36	-7,53
853,53	-20,43
853,70	2,46
853,88	1,89
854,05	-10,39
854,22	3,94
854,39	4,30
854,56	0,00
854,74	4,15
854,91	-1,74
855,08	-0,36
855,25	8,65
855,42	-19,61
855,60	4,25
855,77	-4,61
855,94	-3,38
856,11	-3,23
856,28	-9,63
856,46	6,60
856,63	7,37
856,80	-6,20
856,97	5,79
857,14	-6,14
857,31	5,12
857,49	-10,34
857,66	3,23
857,83	3,43
858,00	4,04
858,17	1,38
858,34	-8,24
858,52	-2,76
858,69	1,33
858,86	23,45
859,03	10,44
859,20	-0,72
859,37	-8,40
859,55	0,46
859,72	5,58
859,89	-4,86
860,06	6,50
860,23	15,26
860,40	-1,02
860,57	-8,96
860,75	-1,13
860,92	2,41
861,09	1,18
861,26	1,54
861,43	6,04
861,60	-10,44
861,77	-11,93
861,95	2,36
862,12	-7,88
862,29	-9,63
862,46	-2,15
862,63	3,12
862,80	-3,89
862,97	-3,48
863,14	7,42
863,31	-2,71
863,49	-8,40
863,66	11,67
863,83	1,74
864,00	3,07
864,17	7,32
864,34	7,32
864,51	4,04
864,68	0,77
864,85	-4,25
865,02	-0,67
865,20	5,12
865,37	-4,20
865,54	-13,82
865,71	-2,46
865,88	-8,45
866,05	-7,01
866,22	-0,20
866,39	9,63
866,56	7,73
866,73	-11,21
866,90	3,48
867,07	9,98
867,25	6,09
867,42	1,89
867,59	4,30
867,76	11,93
867,93	15,82
868,10	0,51
868,27	2,15
868,44	1,69
868,61	0,20
868,78	-2,71
868,95	2,97
869,12	-5,12
869,29	6,09
869,46	9,73
869,63	-6,04
869,80	5,17
869,97	-6,40
870,14	11,78
870,32	-2,15
870,49	-13,11
870,66	-10,14
870,83	-1,54
871,00	11,47
871,17	5,68
871,34	-5,58
871,51	-6,76
871,68	-7,68
871,85	5,99
872,02	0,10
872,19	-11,52
872,36	3,79
872,53	-0,61
872,70	-8,50
872,87	-10,91
873,04	16,84
873,21	15,05
873,38	-9,06
873,55	15,41
873,72	4,51
873,89	-2,92
874,06	-3,53
874,23	-5,84
874,40	6,91
874,57	7,88
874,74	19,92
874,91	-21,20
875,08	-10,50
875,25	8,91
875,42	14,75
875,59	2,20
875,76	-2,87
875,93	-6,76
876,10	6,45
876,27	9,01
876,44	-0,87
876,61	-3,58
876,78	9,06
876,95	-5,22
877,12	13,82
877,29	-0,61
877,46	3,48
877,62	24,22
877,79	3,64
877,96	7,22
878,13	-4,81
878,30	-3,07
878,47	5,32
878,64	-4,45
878,81	13,26
878,98	-3,17
879,15	5,68
879,32	0,77
879,49	-1,33
879,66	-4,97
879,83	16,38
880,00	5,53
880,17	1,43
880,34	-0,67
880,51	-8,81
880,67	4,04
880,84	-8,24
881,01	14,03
881,18	11,78
881,35	-0,05
881,52	4,66
881,69	3,48
881,86	2,00
882,03	9,01
882,20	15,36
882,37	-3,74
882,54	0,15
882,70	1,59
882,87	-1,69
883,04	10,14
883,21	6,35
883,38	2,25
883,55	11,52
883,72	-6,30
883,89	-0,20
884,06	8,14
884,23	-7,83
884,39	5,58
884,56	12,29
884,73	11,37
884,90	9,22
885,07	2,36
885,24	-1,48
885,41	9,37
885,58	1,28
885,74	-0,72
885,91	6,96
886,08	2,20
886,25	-14,44
886,42	11,98
886,59	21,45
886,76	-3,43
886,93	-2,87
887,09	17,82
887,26	-9,68
887,43	-1,13
887,60	5,84
887,77	18,74
887,94	-3,79
888,10	-3,58
888,27	21,61
888,44	12,70
888,61	4,20
888,78	21,76
888,95	1,54
889,12	-2,97
889,28	-5,53
889,45	8,35
889,62	6,40
889,79	10,19
889,96	2,15
890,13	4,51
890,29	16,64
890,46	15,36
890,63	7,07
890,80	0,41
890,97	13,00
891,13	13,93
891,30	-11,16
891,47	-10,75
891,64	-5,84
891,81	7,17
891,98	-5,99
892,14	10,29
892,31	6,45
892,48	0,56
892,65	7,42
892,82	-2,36
892,98	-7,78
893,15	-13,06
893,32	-0,82
>>>>>End Processed Spectral Data<<<<<
