SpectraSuite Datei
++++++++++++++++++++++++++++++++++++
Datum: Tue Dec 10 15:54:55 CET 2019
Benutzer: Lichtquellen1
Dark-Spektrum vorhanden: Ja
Referenz-Spektrum vorhanden: Nein
Zahl der probierten Teilspektren: 1
Spektrometer: USB4F05832
Integrationszeit (usec): 40000 (USB4F05832)
Spektren Durchschnitt berechnet: 40 (USB4F05832)
Boxcar Glättung: 0 (USB4F05832)
Dunkelstromkorrektur: Nein (USB4F05832)
Puls/Lampe aktiviert: Nein (USB4F05832)
Correct for Detector Non-linearity: Nein (USB4F05832)
Streulichtkorrektur: Nein (USB4F05832)
Anzahl Pixel in verarbeitetem Spektrum: 3648
>>>>>Begin Processed Spectral Data<<<<<
177,54	-1,13
177,75	-1,13
177,97	-1,13
178,19	2,41
178,41	-14,39
178,63	3,53
178,85	3,38
179,07	-0,51
179,29	3,38
179,51	-1,43
179,73	-5,99
179,95	7,88
180,17	14,59
180,39	-3,07
180,61	-4,92
180,83	-0,61
181,05	-2,20
181,27	-3,53
181,49	4,81
181,71	5,02
181,92	14,44
182,14	-3,12
182,36	10,96
182,58	12,19
182,80	14,54
183,02	1,64
183,24	19,30
183,46	8,96
183,68	7,83
183,90	0,87
184,12	0,97
184,34	16,79
184,56	-4,76
184,78	20,79
185,00	27,60
185,21	3,33
185,43	-4,20
185,65	8,04
185,87	5,79
186,09	-5,27
186,31	14,49
186,53	12,44
186,75	5,17
186,97	-0,31
187,19	8,24
187,41	5,38
187,63	5,68
187,84	-0,46
188,06	0,31
188,28	11,93
188,50	7,58
188,72	2,00
188,94	14,69
189,16	8,81
189,38	-0,15
189,60	6,81
189,82	11,32
190,03	-8,81
190,25	-6,40
190,47	-2,92
190,69	2,25
190,91	-3,12
191,13	5,02
191,35	15,87
191,57	20,84
191,79	12,70
192,01	8,04
192,22	5,32
192,44	7,01
192,66	-2,87
192,88	10,39
193,10	-2,46
193,32	8,24
193,54	9,06
193,76	0,41
193,98	7,27
194,19	-2,71
194,41	0,87
194,63	6,96
194,85	3,48
195,07	10,50
195,29	3,17
195,51	-9,37
195,73	6,55
195,94	-7,88
196,16	8,29
196,38	4,76
196,60	14,49
196,82	9,88
197,04	15,51
197,26	12,13
197,48	-0,67
197,69	7,58
197,91	0,20
198,13	11,11
198,35	12,60
198,57	7,32
198,79	12,29
199,01	6,04
199,22	13,06
199,44	2,71
199,66	-3,64
199,88	14,75
200,10	4,25
200,32	13,41
200,54	7,63
200,75	7,27
200,97	-2,97
201,19	17,00
201,41	-5,43
201,63	-3,33
201,85	3,23
202,06	8,76
202,28	9,01
202,50	11,72
202,72	11,01
202,94	7,32
203,16	10,70
203,38	3,94
203,59	7,88
203,81	18,07
204,03	10,29
204,25	-4,86
204,47	17,97
204,69	-8,29
204,90	16,33
205,12	3,17
205,34	-5,53
205,56	19,35
205,78	-12,29
206,00	8,35
206,21	9,78
206,43	7,48
206,65	8,70
206,87	26,83
207,09	4,25
207,30	-12,90
207,52	9,57
207,74	6,96
207,96	0,56
208,18	3,79
208,40	8,91
208,61	-1,84
208,83	-1,02
209,05	5,27
209,27	-3,07
209,49	13,11
209,70	17,56
209,92	7,73
210,14	-3,28
210,36	10,14
210,58	21,71
210,79	9,11
211,01	6,04
211,23	18,79
211,45	-11,83
211,67	15,72
211,88	11,37
212,10	10,85
212,32	-1,54
212,54	-5,22
212,76	8,04
212,97	-5,63
213,19	11,93
213,41	-4,76
213,63	15,72
213,85	0,26
214,06	11,32
214,28	5,27
214,50	8,40
214,72	22,27
214,94	-3,99
215,15	2,36
215,37	0,10
215,59	-6,86
215,81	9,93
216,02	4,86
216,24	6,96
216,46	-13,72
216,68	29,23
216,90	17,71
217,11	1,54
217,33	8,86
217,55	8,40
217,77	15,00
217,98	18,94
218,20	6,35
218,42	-13,31
218,64	-0,46
218,85	2,61
219,07	1,64
219,29	3,07
219,51	2,05
219,73	14,95
219,94	-2,10
220,16	15,41
220,38	0,72
220,60	10,91
220,81	6,40
221,03	10,55
221,25	11,11
221,47	-2,71
221,68	5,22
221,90	-4,15
222,12	7,17
222,34	21,45
222,55	21,35
222,77	2,56
222,99	16,49
223,21	-1,48
223,42	10,09
223,64	7,12
223,86	2,71
224,08	-1,84
224,29	0,26
224,51	1,08
224,73	1,64
224,94	7,83
225,16	5,53
225,38	0,72
225,60	9,01
225,81	-5,79
226,03	4,66
226,25	10,96
226,47	18,59
226,68	7,68
226,90	4,71
227,12	16,69
227,33	-15,97
227,55	8,55
227,77	3,33
227,99	7,58
228,20	1,08
228,42	-8,40
228,64	0,00
228,86	10,80
229,07	9,73
229,29	0,56
229,51	8,19
229,72	-15,26
229,94	11,88
230,16	15,36
230,38	-13,36
230,59	23,14
230,81	0,46
231,03	5,84
231,24	20,17
231,46	-6,14
231,68	-7,73
231,89	-1,69
232,11	7,37
232,33	5,07
232,55	-3,74
232,76	0,15
232,98	10,50
233,20	10,14
233,41	2,51
233,63	2,10
233,85	-3,99
234,06	-20,43
234,28	7,88
234,50	7,58
234,71	0,41
234,93	21,25
235,15	-0,31
235,37	3,28
235,58	9,11
235,80	-0,77
236,02	13,57
236,23	9,32
236,45	15,31
236,67	-5,94
236,88	-2,30
237,10	26,11
237,32	10,39
237,53	10,85
237,75	11,06
237,97	9,06
238,18	-4,25
238,40	0,10
238,62	8,29
238,83	1,59
239,05	-7,53
239,27	6,96
239,48	8,45
239,70	6,60
239,92	3,89
240,13	2,56
240,35	1,08
240,57	12,03
240,78	-3,58
241,00	1,95
241,22	-5,43
241,43	1,95
241,65	2,30
241,87	10,65
242,08	-5,84
242,30	16,69
242,52	3,53
242,73	0,10
242,95	4,30
243,16	23,45
243,38	18,02
243,60	15,26
243,81	14,03
244,03	0,46
244,25	-1,89
244,46	16,18
244,68	-7,63
244,90	9,83
245,11	-2,51
245,33	3,94
245,55	2,51
245,76	3,12
245,98	3,74
246,19	24,47
246,41	13,62
246,63	12,29
246,84	22,32
247,06	-1,18
247,28	13,06
247,49	13,57
247,71	3,12
247,92	18,33
248,14	-8,91
248,36	3,53
248,57	12,19
248,79	9,47
249,01	20,58
249,22	8,29
249,44	-2,46
249,65	23,19
249,87	19,61
250,09	7,12
250,30	-0,15
250,52	2,30
250,73	18,94
250,95	14,64
251,17	20,48
251,38	5,12
251,60	1,38
251,81	9,93
252,03	6,55
252,25	18,18
252,46	-3,33
252,68	-6,81
252,89	6,71
253,11	0,51
253,33	16,74
253,54	11,93
253,76	5,58
253,97	4,25
254,19	14,64
254,41	0,82
254,62	14,80
254,84	3,89
255,05	-6,81
255,27	11,01
255,49	12,85
255,70	6,55
255,92	10,34
256,13	-3,64
256,35	-1,54
256,56	8,76
256,78	-4,51
257,00	4,15
257,21	5,07
257,43	-5,07
257,64	5,84
257,86	15,46
258,08	-0,82
258,29	-1,43
258,51	10,04
258,72	11,21
258,94	5,79
259,15	18,28
259,37	3,23
259,59	2,20
259,80	4,76
260,02	8,09
260,23	6,30
260,45	3,53
260,66	-3,28
260,88	19,51
261,09	11,21
261,31	-2,87
261,53	3,38
261,74	22,22
261,96	1,08
262,17	24,78
262,39	12,95
262,60	14,44
262,82	4,25
263,03	1,23
263,25	6,55
263,46	10,60
263,68	18,64
263,90	13,36
264,11	4,66
264,33	7,37
264,54	-1,23
264,76	16,23
264,97	3,48
265,19	18,59
265,40	-1,18
265,62	18,12
265,83	2,36
266,05	-1,08
266,26	3,23
266,48	11,32
266,70	21,25
266,91	3,23
267,13	21,71
267,34	3,94
267,56	10,34
267,77	8,24
267,99	-0,36
268,20	4,76
268,42	9,06
268,63	11,32
268,85	7,88
269,06	-4,66
269,28	4,35
269,49	19,15
269,71	10,29
269,92	2,92
270,14	11,52
270,35	11,32
270,57	21,20
270,78	4,30
271,00	8,19
271,21	15,05
271,43	13,21
271,64	1,84
271,86	33,02
272,07	8,04
272,29	2,61
272,50	17,66
272,72	-0,15
272,93	16,95
273,15	1,33
273,36	4,61
273,58	0,82
273,79	2,25
274,01	4,81
274,22	3,79
274,44	11,16
274,65	-8,35
274,87	1,02
275,08	1,28
275,30	0,10
275,51	6,96
275,73	7,68
275,94	-12,75
276,16	21,76
276,37	14,75
276,59	17,05
276,80	10,80
277,02	12,70
277,23	11,52
277,45	2,97
277,66	9,06
277,88	27,19
278,09	9,16
278,30	-10,34
278,52	-2,00
278,73	-0,56
278,95	14,18
279,16	12,65
279,38	8,09
279,59	2,00
279,81	18,02
280,02	15,97
280,24	2,20
280,45	8,81
280,67	9,37
280,88	-4,97
281,09	-0,10
281,31	7,22
281,52	13,82
281,74	-5,38
281,95	3,94
282,17	6,55
282,38	4,40
282,60	-7,01
282,81	6,71
283,02	-3,69
283,24	4,51
283,45	18,94
283,67	14,34
283,88	17,05
284,10	-20,79
284,31	-5,22
284,53	8,96
284,74	-0,26
284,95	8,60
285,17	1,43
285,38	9,83
285,60	4,76
285,81	-3,43
286,03	3,74
286,24	14,95
286,45	8,04
286,67	15,41
286,88	11,11
287,10	-7,53
287,31	-2,10
287,53	21,04
287,74	3,53
287,95	-6,14
288,17	-5,63
288,38	6,91
288,60	13,16
288,81	9,16
289,02	-0,20
289,24	15,05
289,45	4,56
289,67	-2,25
289,88	5,38
290,10	5,58
290,31	6,09
290,52	13,87
290,74	14,49
290,95	0,31
291,17	22,37
291,38	-5,02
291,59	5,32
291,81	7,99
292,02	-6,20
292,24	-1,89
292,45	16,08
292,66	-13,93
292,88	7,12
293,09	8,76
293,31	3,17
293,52	-0,82
293,73	5,63
293,95	5,94
294,16	16,64
294,37	21,30
294,59	17,66
294,80	11,83
295,02	7,88
295,23	-20,63
295,44	3,69
295,66	-8,50
295,87	7,68
296,09	0,87
296,30	2,36
296,51	3,23
296,73	19,76
296,94	-11,57
297,15	4,15
297,37	10,44
297,58	-1,74
297,79	7,37
298,01	0,41
298,22	-2,25
298,44	5,53
298,65	-4,35
298,86	3,89
299,08	18,99
299,29	4,71
299,50	-9,83
299,72	17,51
299,93	9,06
300,14	-3,17
300,36	-4,71
300,57	-3,89
300,79	-4,66
301,00	-3,33
301,21	-0,05
301,43	4,10
301,64	12,60
301,85	7,42
302,07	9,27
302,28	15,21
302,49	19,76
302,71	14,95
302,92	11,01
303,13	-3,43
303,35	7,99
303,56	16,69
303,77	2,61
303,99	-1,48
304,20	7,12
304,41	-3,07
304,63	7,42
304,84	8,91
305,05	-0,77
305,27	18,43
305,48	3,17
305,69	11,21
305,91	0,05
306,12	2,82
306,33	3,69
306,55	-0,46
306,76	5,02
306,97	13,82
307,19	2,00
307,40	31,33
307,61	-3,02
307,82	2,97
308,04	0,97
308,25	2,36
308,46	0,46
308,68	-2,25
308,89	1,95
309,10	11,93
309,32	6,86
309,53	3,64
309,74	13,72
309,96	6,86
310,17	-0,36
310,38	2,25
310,59	-3,12
310,81	1,43
311,02	6,20
311,23	7,68
311,45	12,75
311,66	-14,75
311,87	2,46
312,09	5,02
312,30	10,91
312,51	4,25
312,72	17,10
312,94	4,81
313,15	10,04
313,36	15,56
313,58	-0,72
313,79	6,14
314,00	-0,77
314,21	-4,92
314,43	24,06
314,64	-1,74
314,85	2,05
315,06	6,09
315,28	4,10
315,49	9,11
315,70	-2,41
315,92	1,08
316,13	6,25
316,34	0,15
316,55	8,81
316,77	4,56
316,98	10,80
317,19	2,20
317,40	7,07
317,62	10,65
317,83	10,19
318,04	16,59
318,25	13,82
318,47	4,61
318,68	-1,28
318,89	17,56
319,11	8,86
319,32	3,02
319,53	-3,43
319,74	15,56
319,96	23,35
320,17	17,77
320,38	-4,97
320,59	11,16
320,81	11,42
321,02	18,18
321,23	-1,74
321,44	1,54
321,65	-3,53
321,87	-2,20
322,08	8,29
322,29	4,76
322,50	8,35
322,72	7,88
322,93	6,25
323,14	13,31
323,35	-9,73
323,57	23,40
323,78	12,34
323,99	13,98
324,20	7,07
324,41	31,74
324,63	18,99
324,84	20,89
325,05	4,76
325,26	1,23
325,48	5,48
325,69	1,08
325,90	-4,92
326,11	5,73
326,32	10,04
326,54	11,01
326,75	7,37
326,96	7,88
327,17	7,63
327,39	-8,04
327,60	16,69
327,81	6,30
328,02	13,77
328,23	7,42
328,45	4,76
328,66	7,94
328,87	6,86
329,08	11,98
329,29	3,28
329,51	11,78
329,72	18,07
329,93	9,06
330,14	9,68
330,35	13,36
330,56	10,09
330,78	-2,92
330,99	-4,56
331,20	-0,97
331,41	7,53
331,62	9,16
331,84	-1,95
332,05	21,61
332,26	12,39
332,47	19,66
332,68	52,02
332,90	52,74
333,11	61,29
333,32	74,85
333,53	66,10
333,74	51,86
333,95	51,25
334,17	51,46
334,38	26,16
334,59	6,76
334,80	29,39
335,01	12,95
335,22	34,25
335,44	12,03
335,65	18,64
335,86	15,46
336,07	4,30
336,28	4,15
336,49	8,45
336,71	12,95
336,92	3,89
337,13	2,05
337,34	0,31
337,55	26,62
337,76	-1,95
337,97	11,42
338,19	9,32
338,40	18,38
338,61	4,61
338,82	12,65
339,03	8,14
339,24	-0,46
339,45	8,29
339,67	-14,75
339,88	15,41
340,09	9,11
340,30	11,32
340,51	0,31
340,72	3,43
340,93	-4,86
341,15	2,87
341,36	6,14
341,57	-20,74
341,78	-11,47
341,99	6,14
342,20	11,78
342,41	1,89
342,62	4,51
342,84	7,22
343,05	9,22
343,26	2,00
343,47	9,68
343,68	-1,33
343,89	6,14
344,10	19,05
344,31	4,25
344,53	18,64
344,74	1,02
344,95	-1,95
345,16	0,15
345,37	13,67
345,58	7,99
345,79	10,80
346,00	-2,00
346,21	3,74
346,42	-1,18
346,64	8,70
346,85	-10,75
347,06	3,07
347,27	-4,71
347,48	8,24
347,69	13,16
347,90	-2,25
348,11	10,75
348,32	2,46
348,53	8,35
348,75	1,69
348,96	9,98
349,17	2,66
349,38	24,17
349,59	7,12
349,80	-1,64
350,01	8,09
350,22	4,04
350,43	-0,46
350,64	9,93
350,85	13,16
351,06	-5,89
351,28	10,55
351,49	-1,43
351,70	4,10
351,91	-2,71
352,12	17,41
352,33	13,67
352,54	9,22
352,75	-2,76
352,96	-2,41
353,17	0,97
353,38	1,38
353,59	0,46
353,80	15,15
354,01	19,66
354,22	9,27
354,44	4,76
354,65	16,13
354,86	11,37
355,07	10,70
355,28	18,59
355,49	-1,79
355,70	5,48
355,91	7,58
356,12	3,84
356,33	4,10
356,54	8,70
356,75	16,79
356,96	5,79
357,17	2,36
357,38	1,23
357,59	25,45
357,80	11,16
358,01	-1,08
358,22	7,94
358,43	15,67
358,64	-3,58
358,85	4,10
359,07	16,69
359,28	1,02
359,49	-1,18
359,70	4,97
359,91	4,56
360,12	7,42
360,33	-9,22
360,54	5,48
360,75	8,09
360,96	9,16
361,17	0,31
361,38	8,86
361,59	5,84
361,80	-10,04
362,01	12,44
362,22	7,83
362,43	11,26
362,64	-0,67
362,85	9,63
363,06	23,86
363,27	5,27
363,48	12,85
363,69	16,43
363,90	2,92
364,11	7,58
364,32	13,62
364,53	6,04
364,74	-1,69
364,95	0,20
365,16	6,81
365,37	6,04
365,58	-5,84
365,79	4,40
366,00	6,66
366,21	2,87
366,42	7,07
366,63	10,55
366,84	6,91
367,05	12,29
367,26	1,89
367,47	3,48
367,68	6,60
367,89	6,86
368,10	22,78
368,31	-0,51
368,52	8,29
368,73	15,10
368,94	6,09
369,15	-7,78
369,36	24,99
369,57	-3,28
369,78	-11,57
369,99	8,55
370,20	4,97
370,40	5,17
370,61	6,04
370,82	14,54
371,03	10,65
371,24	-13,72
371,45	11,62
371,66	-4,97
371,87	16,64
372,08	-11,06
372,29	14,08
372,50	-13,06
372,71	11,21
372,92	1,64
373,13	5,38
373,34	8,19
373,55	-9,22
373,76	0,87
373,97	-3,07
374,18	-6,66
374,39	8,70
374,60	11,01
374,81	-0,77
375,01	10,09
375,22	7,94
375,43	8,65
375,64	6,25
375,85	7,88
376,06	12,24
376,27	6,30
376,48	5,12
376,69	-9,47
376,90	10,96
377,11	-9,47
377,32	8,24
377,53	3,28
377,74	-6,81
377,94	9,01
378,15	7,32
378,36	1,84
378,57	0,61
378,78	14,69
378,99	5,84
379,20	5,99
379,41	6,91
379,62	-2,92
379,83	14,80
380,04	3,84
380,25	9,11
380,45	5,53
380,66	-6,71
380,87	10,85
381,08	10,39
381,29	-10,55
381,50	15,67
381,71	3,07
381,92	-6,09
382,13	8,65
382,34	15,56
382,55	4,51
382,75	2,76
382,96	7,68
383,17	-11,21
383,38	0,41
383,59	21,76
383,80	13,11
384,01	16,64
384,22	12,85
384,43	13,67
384,63	13,26
384,84	15,77
385,05	-5,99
385,26	12,44
385,47	8,86
385,68	1,59
385,89	8,50
386,10	4,35
386,30	7,07
386,51	-5,48
386,72	18,07
386,93	4,86
387,14	-8,76
387,35	6,30
387,56	15,82
387,77	4,92
387,97	-1,02
388,18	9,32
388,39	16,59
388,60	-5,73
388,81	26,57
389,02	5,63
389,23	19,40
389,43	6,81
389,64	0,67
389,85	8,86
390,06	1,74
390,27	4,04
390,48	15,41
390,69	5,63
390,89	2,00
391,10	-0,41
391,31	22,89
391,52	1,64
391,73	1,38
391,94	-2,25
392,14	-2,66
392,35	13,16
392,56	4,20
392,77	-9,57
392,98	-3,38
393,19	9,57
393,39	11,42
393,60	14,64
393,81	4,92
394,02	12,19
394,23	15,82
394,44	-8,55
394,64	3,84
394,85	12,39
395,06	0,56
395,27	11,52
395,48	-10,14
395,69	24,22
395,89	7,88
396,10	11,78
396,31	8,29
396,52	14,03
396,73	1,33
396,93	2,15
397,14	11,93
397,35	4,81
397,56	-0,92
397,77	8,40
397,97	3,33
398,18	5,73
398,39	15,36
398,60	5,94
398,81	7,42
399,01	7,37
399,22	7,83
399,43	-12,90
399,64	1,89
399,85	-7,12
400,05	6,96
400,26	3,33
400,47	-6,40
400,68	15,15
400,89	-3,74
401,09	9,06
401,30	9,78
401,51	-0,05
401,72	24,27
401,93	21,04
402,13	6,09
402,34	16,43
402,55	15,41
402,76	-5,43
402,96	15,62
403,17	-0,26
403,38	16,64
403,59	0,87
403,80	-10,09
404,00	-1,43
404,21	7,32
404,42	-2,92
404,63	-0,92
404,83	11,83
405,04	-3,74
405,25	8,60
405,46	8,81
405,66	3,99
405,87	22,48
406,08	19,56
406,29	19,15
406,49	5,48
406,70	13,36
406,91	5,48
407,12	-7,17
407,32	1,48
407,53	5,17
407,74	7,94
407,95	-6,81
408,15	4,66
408,36	8,29
408,57	9,42
408,78	8,81
408,98	8,96
409,19	5,32
409,40	-3,17
409,61	8,55
409,81	-3,38
410,02	1,43
410,23	-0,72
410,44	3,79
410,64	-2,92
410,85	10,14
411,06	5,38
411,26	-11,11
411,47	-4,35
411,68	-0,67
411,89	4,71
412,09	4,35
412,30	-3,07
412,51	9,93
412,72	19,66
412,92	10,19
413,13	18,69
413,34	-3,43
413,54	11,32
413,75	-6,71
413,96	-5,07
414,17	-6,66
414,37	0,00
414,58	-2,10
414,79	9,63
414,99	-8,76
415,20	-3,79
415,41	3,38
415,61	7,48
415,82	2,36
416,03	0,61
416,24	7,22
416,44	1,08
416,65	14,59
416,86	-1,79
417,06	3,64
417,27	13,26
417,48	2,66
417,68	-5,73
417,89	2,56
418,10	-9,93
418,30	7,32
418,51	-2,51
418,72	12,29
418,92	20,27
419,13	-14,80
419,34	2,82
419,55	1,69
419,75	8,96
419,96	21,20
420,17	-3,94
420,37	0,56
420,58	-6,55
420,79	-7,37
420,99	19,97
421,20	8,04
421,41	4,97
421,61	-8,96
421,82	21,50
422,03	-1,69
422,23	4,81
422,44	6,81
422,65	15,36
422,85	18,28
423,06	16,95
423,26	7,32
423,47	10,44
423,68	16,49
423,88	19,25
424,09	6,20
424,30	25,34
424,50	11,01
424,71	0,46
424,92	1,89
425,12	2,46
425,33	21,40
425,54	4,40
425,74	-1,38
425,95	8,40
426,15	0,72
426,36	-1,54
426,57	15,46
426,77	21,25
426,98	4,30
427,19	12,44
427,39	-4,92
427,60	-3,69
427,81	-11,57
428,01	-5,63
428,22	8,35
428,42	19,15
428,63	9,37
428,84	11,83
429,04	16,90
429,25	6,76
429,45	16,08
429,66	11,52
429,87	7,32
430,07	-0,92
430,28	13,72
430,49	-6,30
430,69	3,12
430,90	-7,22
431,10	12,95
431,31	7,68
431,52	-7,58
431,72	-3,94
431,93	2,36
432,13	3,58
432,34	4,15
432,55	-3,12
432,75	5,07
432,96	7,01
433,16	0,05
433,37	10,96
433,58	-1,23
433,78	17,05
433,99	8,86
434,19	10,24
434,40	2,71
434,60	16,90
434,81	2,71
435,02	3,17
435,22	22,17
435,43	9,63
435,63	-9,52
435,84	-4,40
436,05	12,03
436,25	10,29
436,46	5,22
436,66	-4,10
436,87	-3,64
437,07	-1,54
437,28	12,44
437,48	18,99
437,69	8,65
437,90	9,78
438,10	10,24
438,31	10,04
438,51	-0,92
438,72	-5,53
438,92	8,29
439,13	15,92
439,34	0,67
439,54	6,76
439,75	9,22
439,95	-1,59
440,16	-5,73
440,36	-5,12
440,57	22,12
440,77	6,96
440,98	-5,63
441,18	4,71
441,39	-7,07
441,60	6,09
441,80	-8,40
442,01	13,16
442,21	13,41
442,42	22,99
442,62	0,15
442,83	12,03
443,03	13,82
443,24	0,26
443,44	17,92
443,65	0,05
443,85	11,67
444,06	20,53
444,26	8,50
444,47	19,87
444,67	24,06
444,88	13,57
445,09	0,26
445,29	-9,22
445,50	5,07
445,70	14,95
445,91	1,59
446,11	5,38
446,32	-4,15
446,52	6,55
446,73	8,09
446,93	7,42
447,14	-2,87
447,34	-6,14
447,55	9,78
447,75	-0,82
447,96	-2,25
448,16	18,02
448,37	-12,24
448,57	2,56
448,78	4,71
448,98	17,46
449,19	9,52
449,39	20,53
449,60	14,34
449,80	-15,82
450,01	5,53
450,21	6,76
450,42	-3,58
450,62	-10,29
450,83	-2,41
451,03	-11,62
451,23	9,27
451,44	3,28
451,64	-10,09
451,85	15,87
452,05	3,33
452,26	-8,04
452,46	9,42
452,67	0,41
452,87	10,50
453,08	2,56
453,28	18,79
453,49	14,13
453,69	5,89
453,90	14,59
454,10	17,71
454,31	2,61
454,51	-14,64
454,71	7,88
454,92	12,19
455,12	0,87
455,33	-3,53
455,53	19,97
455,74	22,94
455,94	13,16
456,15	12,54
456,35	11,72
456,55	8,19
456,76	-0,97
456,96	-3,23
457,17	-3,33
457,37	8,04
457,58	-3,74
457,78	8,76
457,99	16,59
458,19	4,51
458,39	13,67
458,60	1,13
458,80	19,20
459,01	-2,10
459,21	8,55
459,42	-4,51
459,62	8,19
459,82	9,06
460,03	-1,64
460,23	6,66
460,44	-2,92
460,64	4,51
460,85	-7,83
461,05	7,68
461,25	1,02
461,46	17,41
461,66	0,26
461,87	2,30
462,07	17,41
462,27	6,04
462,48	25,19
462,68	-3,43
462,89	-3,23
463,09	11,57
463,29	11,32
463,50	3,58
463,70	6,81
463,91	13,41
464,11	-3,38
464,31	6,20
464,52	-6,81
464,72	-7,68
464,93	11,26
465,13	6,71
465,33	-8,86
465,54	0,00
465,74	6,25
465,95	2,15
466,15	-5,99
466,35	10,91
466,56	19,81
466,76	-14,49
466,96	1,38
467,17	1,95
467,37	15,67
467,58	13,62
467,78	6,25
467,98	6,86
468,19	0,36
468,39	21,66
468,59	11,57
468,80	8,29
469,00	1,69
469,21	1,33
469,41	7,58
469,61	1,54
469,82	-6,45
470,02	26,27
470,22	5,43
470,43	6,55
470,63	3,84
470,83	-6,91
471,04	7,07
471,24	10,70
471,45	10,34
471,65	5,27
471,85	12,80
472,06	-7,12
472,26	-3,23
472,46	5,68
472,67	16,28
472,87	-3,74
473,07	12,60
473,28	-0,20
473,48	7,07
473,68	8,70
473,89	5,27
474,09	10,39
474,29	3,43
474,50	15,31
474,70	0,87
474,90	11,42
475,11	0,15
475,31	-5,63
475,51	-3,07
475,72	14,85
475,92	-13,21
476,12	18,48
476,33	11,21
476,53	-7,27
476,73	12,54
476,93	11,47
477,14	-13,67
477,34	0,10
477,54	1,79
477,75	16,03
477,95	1,54
478,15	21,91
478,36	5,99
478,56	-3,07
478,76	8,04
478,97	6,14
479,17	27,39
479,37	20,79
479,57	6,45
479,78	16,95
479,98	10,70
480,18	5,07
480,39	13,52
480,59	7,88
480,79	13,98
480,99	13,41
481,20	11,47
481,40	-2,82
481,60	11,21
481,81	-3,33
482,01	3,07
482,21	-1,69
482,41	10,85
482,62	-6,96
482,82	2,82
483,02	-0,61
483,23	21,30
483,43	10,19
483,63	12,95
483,83	-1,48
484,04	-1,95
484,24	11,06
484,44	13,93
484,64	6,60
484,85	7,22
485,05	8,24
485,25	1,79
485,45	13,52
485,66	17,15
485,86	-2,51
486,06	12,08
486,26	13,77
486,47	-5,27
486,67	-0,36
486,87	9,93
487,07	19,30
487,28	-0,15
487,48	10,14
487,68	11,52
487,88	-1,18
488,09	4,97
488,29	0,20
488,49	-7,99
488,69	-7,58
488,90	20,63
489,10	5,32
489,30	1,79
489,50	0,61
489,71	12,80
489,91	2,00
490,11	13,21
490,31	1,64
490,52	6,60
490,72	0,05
490,92	1,13
491,12	24,32
491,32	1,38
491,53	-1,28
491,73	-1,48
491,93	5,48
492,13	1,54
492,33	-9,01
492,54	16,64
492,74	7,58
492,94	5,02
493,14	-10,39
493,35	13,26
493,55	11,78
493,75	-4,20
493,95	4,71
494,15	5,58
494,36	10,75
494,56	1,38
494,76	7,94
494,96	3,99
495,16	4,15
495,37	-3,69
495,57	9,22
495,77	2,30
495,97	7,42
496,17	7,73
496,37	11,98
496,58	6,86
496,78	-4,66
496,98	6,30
497,18	6,40
497,38	-2,61
497,59	13,36
497,79	-4,61
497,99	-4,04
498,19	13,82
498,39	5,58
498,59	13,11
498,80	26,83
499,00	20,58
499,20	28,42
499,40	49,87
499,60	46,23
499,80	35,58
500,01	21,35
500,21	21,81
500,41	35,74
500,61	21,15
500,81	11,11
501,01	19,35
501,22	18,48
501,42	4,35
501,62	11,78
501,82	9,93
502,02	-5,07
502,22	15,10
502,42	13,98
502,63	-2,51
502,83	10,09
503,03	15,36
503,23	7,78
503,43	3,89
503,63	-0,15
503,83	15,36
504,04	7,01
504,24	6,96
504,44	-6,81
504,64	-9,32
504,84	7,27
505,04	-3,74
505,24	10,04
505,44	13,62
505,65	-5,48
505,85	4,15
506,05	17,00
506,25	2,36
506,45	4,66
506,65	-0,41
506,85	23,24
507,05	-0,05
507,26	4,66
507,46	8,86
507,66	7,32
507,86	19,10
508,06	17,77
508,26	0,72
508,46	10,60
508,66	8,35
508,86	19,76
509,06	18,84
509,27	4,04
509,47	-2,36
509,67	7,22
509,87	15,36
510,07	6,35
510,27	5,02
510,47	9,42
510,67	10,44
510,87	-5,99
511,07	10,04
511,28	4,15
511,48	16,79
511,68	8,65
511,88	14,03
512,08	6,50
512,28	7,73
512,48	-6,35
512,68	11,72
512,88	9,37
513,08	6,35
513,28	5,79
513,48	-1,43
513,68	-0,26
513,89	-2,05
514,09	4,61
514,29	6,35
514,49	-5,38
514,69	9,52
514,89	14,95
515,09	0,10
515,29	14,44
515,49	6,81
515,69	-3,53
515,89	13,72
516,09	15,41
516,29	-0,46
516,49	11,01
516,69	13,67
516,89	6,60
517,09	22,89
517,29	25,96
517,50	8,14
517,70	-3,38
517,90	24,83
518,10	0,92
518,30	3,02
518,50	5,73
518,70	2,51
518,90	-1,33
519,10	-3,84
519,30	1,23
519,50	-7,48
519,70	4,92
519,90	-1,38
520,10	5,02
520,30	2,10
520,50	-5,79
520,70	2,56
520,90	4,56
521,10	13,87
521,30	15,72
521,50	10,19
521,70	10,50
521,90	6,55
522,10	9,78
522,30	6,91
522,50	0,92
522,70	13,41
522,90	26,88
523,10	-10,65
523,30	11,62
523,50	8,04
523,70	7,99
523,90	2,00
524,10	9,93
524,30	-3,38
524,50	7,22
524,70	11,83
524,90	2,97
525,10	14,08
525,30	9,01
525,50	6,45
525,70	25,65
525,90	3,74
526,10	12,19
526,30	-10,29
526,50	-1,23
526,70	-3,33
526,90	2,87
527,10	13,72
527,30	-7,48
527,50	1,18
527,70	-1,23
527,90	18,12
528,10	11,06
528,30	-1,18
528,50	12,13
528,70	-2,36
528,90	8,86
529,10	10,50
529,30	-1,38
529,50	22,22
529,70	6,60
529,90	16,43
530,10	-1,28
530,29	15,51
530,49	12,08
530,69	-1,89
530,89	-5,58
531,09	-1,74
531,29	9,37
531,49	-4,40
531,69	2,46
531,89	3,43
532,09	10,19
532,29	-3,23
532,49	9,52
532,69	-0,77
532,89	10,04
533,09	-3,17
533,29	-2,10
533,49	5,58
533,68	2,05
533,88	3,58
534,08	7,53
534,28	20,84
534,48	-2,82
534,68	-2,66
534,88	-6,04
535,08	6,45
535,28	0,15
535,48	-2,51
535,68	8,50
535,88	-4,92
536,08	0,15
536,27	6,04
536,47	-3,07
536,67	17,10
536,87	15,31
537,07	1,13
537,27	13,93
537,47	-9,98
537,67	15,15
537,87	-0,20
538,07	16,64
538,27	5,63
538,46	-11,98
538,66	11,06
538,86	17,87
539,06	-5,53
539,26	5,73
539,46	5,12
539,66	6,40
539,86	-0,61
540,06	5,22
540,25	9,27
540,45	-2,61
540,65	13,87
540,85	-0,97
541,05	7,32
541,25	3,07
541,45	11,83
541,65	12,65
541,85	25,80
542,04	3,53
542,24	9,68
542,44	5,53
542,64	4,35
542,84	9,47
543,04	3,53
543,24	5,43
543,43	11,21
543,63	6,09
543,83	2,36
544,03	-3,64
544,23	12,90
544,43	2,97
544,63	-8,04
544,82	-0,92
545,02	4,76
545,22	1,59
545,42	13,11
545,62	17,51
545,82	-1,54
546,02	14,59
546,21	17,15
546,41	9,83
546,61	9,01
546,81	2,61
547,01	10,19
547,21	5,07
547,40	10,96
547,60	-1,69
547,80	4,35
548,00	10,50
548,20	6,30
548,40	16,54
548,59	-1,38
548,79	13,82
548,99	6,35
549,19	11,93
549,39	9,52
549,59	19,61
549,78	3,28
549,98	8,81
550,18	0,00
550,38	3,58
550,58	0,77
550,77	-10,60
550,97	5,12
551,17	9,47
551,37	1,74
551,57	6,55
551,76	22,83
551,96	2,25
552,16	-4,10
552,36	0,41
552,56	11,78
552,75	15,00
552,95	9,06
553,15	-0,56
553,35	37,48
553,55	-3,89
553,74	0,77
553,94	9,37
554,14	15,87
554,34	-0,15
554,54	-8,65
554,73	-12,34
554,93	16,59
555,13	26,73
555,33	-2,00
555,53	4,71
555,72	15,10
555,92	6,91
556,12	16,23
556,32	6,14
556,51	11,01
556,71	-5,68
556,91	8,24
557,11	10,09
557,30	9,78
557,50	11,52
557,70	19,81
557,90	1,33
558,10	12,80
558,29	-2,05
558,49	11,88
558,69	15,92
558,89	-3,02
559,08	17,66
559,28	7,78
559,48	-4,20
559,68	12,85
559,87	15,56
560,07	22,94
560,27	5,79
560,47	19,30
560,66	17,61
560,86	17,10
561,06	13,62
561,25	10,39
561,45	10,75
561,65	12,19
561,85	14,54
562,04	15,67
562,24	16,18
562,44	13,26
562,64	9,57
562,83	9,32
563,03	12,75
563,23	21,15
563,42	14,64
563,62	6,86
563,82	11,32
564,02	4,25
564,21	30,87
564,41	4,25
564,61	19,51
564,80	8,19
565,00	15,10
565,20	-0,10
565,40	6,81
565,59	18,07
565,79	16,49
565,99	-4,30
566,18	5,48
566,38	6,81
566,58	15,36
566,78	11,11
566,97	29,54
567,17	19,15
567,37	27,65
567,56	24,42
567,76	19,10
567,96	17,82
568,15	43,21
568,35	65,94
568,55	82,23
568,74	134,50
568,94	182,68
569,14	254,61
569,33	295,62
569,53	332,13
569,73	325,06
569,92	292,86
570,12	269,92
570,32	232,39
570,52	182,47
570,71	157,28
570,91	130,97
571,11	111,20
571,30	67,43
571,50	91,60
571,70	87,35
571,89	88,27
572,09	80,18
572,28	62,36
572,48	55,86
572,68	56,83
572,87	51,71
573,07	63,33
573,27	40,70
573,46	35,69
573,66	53,55
573,86	22,63
574,05	27,14
574,25	33,59
574,45	41,93
574,64	55,04
574,84	14,18
575,04	37,02
575,23	28,72
575,43	37,48
575,62	44,75
575,82	56,22
576,02	39,78
576,21	38,81
576,41	33,43
576,61	27,80
576,80	33,13
577,00	57,55
577,19	43,37
577,39	32,67
577,59	35,74
577,78	39,73
577,98	34,61
578,18	40,40
578,37	39,63
578,57	36,91
578,76	33,79
578,96	37,38
579,16	28,31
579,35	37,38
579,55	52,53
579,74	47,56
579,94	54,99
580,14	37,43
580,33	41,16
580,53	34,76
580,72	51,10
580,92	63,49
581,12	49,46
581,31	52,84
581,51	52,68
581,70	59,65
581,90	49,82
582,10	44,59
582,29	60,16
582,49	61,03
582,68	59,49
582,88	59,49
583,07	76,18
583,27	66,87
583,47	59,70
583,66	76,90
583,86	69,99
584,05	76,03
584,25	57,86
584,44	85,40
584,64	85,14
584,84	80,95
585,03	97,18
585,23	92,77
585,42	111,46
585,62	113,56
585,81	116,58
586,01	159,23
586,20	161,69
586,40	170,60
586,60	190,15
586,79	219,49
586,99	215,24
587,18	221,44
587,38	238,79
587,57	246,22
587,77	263,27
587,96	276,78
588,16	313,29
588,35	454,19
588,55	1144,00
588,75	4070,39
588,94	10362,06
589,14	18988,36
589,33	28868,27
589,53	41012,88
589,72	50941,17
589,92	57989,92
590,11	59642,99
590,31	58363,83
590,50	54415,20
590,70	47135,59
590,89	40025,91
591,09	32572,84
591,28	26511,88
591,48	22120,88
591,67	18463,00
591,87	15952,35
592,06	13950,46
592,26	12453,13
592,45	11006,19
592,65	9671,33
592,84	8452,27
593,04	7160,11
593,23	5866,87
593,43	4737,82
593,62	3660,54
593,82	2766,04
594,01	2035,37
594,21	1447,76
594,40	1015,49
594,60	728,77
594,79	552,70
594,99	421,63
595,18	356,35
595,38	282,88
595,57	260,71
595,77	221,03
595,96	193,23
596,16	171,62
596,35	168,96
596,55	140,39
596,74	132,76
596,94	130,92
597,13	127,18
597,33	102,71
597,52	100,66
597,72	110,44
597,91	100,09
598,11	96,72
598,30	70,55
598,50	63,74
598,69	75,47
598,88	99,63
599,08	63,49
599,27	57,24
599,47	64,92
599,66	66,87
599,86	63,69
600,05	58,52
600,25	38,76
600,44	41,98
600,64	51,76
600,83	51,10
601,02	41,42
601,22	54,17
601,41	56,47
601,61	46,39
601,80	45,67
602,00	41,98
602,19	45,06
602,38	48,69
602,58	45,46
602,77	41,98
602,97	39,58
603,16	29,59
603,36	38,50
603,55	31,79
603,74	33,43
603,94	38,91
604,13	28,88
604,33	34,46
604,52	32,15
604,72	29,34
604,91	36,35
605,10	45,36
605,30	40,86
605,49	18,69
605,69	24,88
605,88	36,10
606,07	26,21
606,27	12,49
606,46	27,34
606,66	15,97
606,85	13,47
607,04	29,39
607,24	5,94
607,43	31,64
607,63	16,23
607,82	17,82
608,01	14,75
608,21	34,41
608,40	16,23
608,60	18,07
608,79	30,67
608,98	13,47
609,18	32,92
609,37	7,63
609,57	12,03
609,76	23,96
609,95	14,54
610,15	17,15
610,34	29,39
610,53	19,35
610,73	20,38
610,92	16,28
611,11	22,02
611,31	10,65
611,50	30,16
611,70	10,44
611,89	5,99
612,08	26,42
612,28	23,14
612,47	17,87
612,66	-0,87
612,86	4,51
613,05	17,00
613,24	8,70
613,44	14,64
613,63	-0,36
613,82	15,26
614,02	25,96
614,21	2,92
614,41	2,56
614,60	8,35
614,79	9,47
614,99	8,09
615,18	0,20
615,37	6,35
615,57	37,27
615,76	34,46
615,95	36,81
616,15	69,99
616,34	86,78
616,53	58,06
616,73	76,08
616,92	64,66
617,11	53,66
617,30	55,50
617,50	56,88
617,69	30,51
617,88	24,17
618,08	29,18
618,27	15,56
618,46	15,87
618,66	23,45
618,85	6,86
619,04	13,21
619,24	3,89
619,43	10,65
619,62	6,66
619,82	6,45
620,01	-9,27
620,20	11,62
620,39	2,92
620,59	-0,10
620,78	8,09
620,97	-5,32
621,17	9,37
621,36	-5,53
621,55	-0,26
621,74	17,66
621,94	3,28
622,13	-7,27
622,32	4,56
622,52	6,25
622,71	8,86
622,90	6,91
623,09	2,76
623,29	-9,52
623,48	1,84
623,67	13,41
623,86	0,51
624,06	-8,76
624,25	-10,14
624,44	-3,53
624,64	-1,54
624,83	-8,09
625,02	10,85
625,21	17,41
625,41	-2,76
625,60	-6,81
625,79	10,24
625,98	-6,20
626,18	1,89
626,37	5,84
626,56	-5,32
626,75	-8,40
626,95	-4,25
627,14	-16,64
627,33	6,81
627,52	-13,72
627,72	-12,24
627,91	9,52
628,10	12,70
628,29	-16,59
628,49	-4,97
628,68	5,48
628,87	-10,24
629,06	1,48
629,25	-9,57
629,45	2,51
629,64	2,46
629,83	-6,20
630,02	-6,86
630,22	18,94
630,41	4,97
630,60	10,80
630,79	-4,71
630,98	-9,22
631,18	-3,99
631,37	-18,07
631,56	5,27
631,75	-13,87
631,94	-7,22
632,14	-20,79
632,33	-5,84
632,52	10,75
632,71	-0,36
632,90	-14,08
633,10	-15,97
633,29	-6,60
633,48	-20,53
633,67	-1,08
633,86	-9,68
634,06	-18,28
634,25	-9,78
634,44	-3,69
634,63	1,23
634,82	-4,15
635,02	5,73
635,21	3,94
635,40	-4,56
635,59	-1,54
635,78	-8,50
635,97	-9,42
636,17	-15,82
636,36	10,14
636,55	-4,10
636,74	-1,33
636,93	-12,65
637,12	-9,16
637,32	-3,53
637,51	-19,61
637,70	-14,80
637,89	0,77
638,08	-15,05
638,27	-0,05
638,47	-15,21
638,66	-11,11
638,85	-15,87
639,04	-32,31
639,23	-16,43
639,42	-23,81
639,62	-11,57
639,81	-3,58
640,00	-21,96
640,19	-10,19
640,38	-25,34
640,57	-16,33
640,76	-3,43
640,95	-7,32
641,15	0,20
641,34	-12,49
641,53	-7,78
641,72	-8,91
641,91	-0,05
642,10	-11,72
642,29	-0,05
642,49	-13,93
642,68	-22,78
642,87	-13,06
643,06	7,73
643,25	-16,23
643,44	2,00
643,63	-19,30
643,82	-11,32
644,01	-13,77
644,21	-1,64
644,40	-33,02
644,59	-31,54
644,78	-9,73
644,97	-13,72
645,16	0,67
645,35	-17,82
645,54	-20,79
645,73	-11,37
645,92	-20,58
646,12	-9,73
646,31	-26,57
646,50	-7,22
646,69	-11,93
646,88	-18,48
647,07	-17,46
647,26	-15,15
647,45	-16,49
647,64	-8,76
647,83	-18,12
648,02	-13,06
648,22	-7,99
648,41	-23,55
648,60	-4,51
648,79	-13,31
648,98	-8,09
649,17	-16,03
649,36	-9,68
649,55	-6,40
649,74	-4,15
649,93	-7,32
650,12	-11,57
650,31	-20,63
650,50	-15,46
650,69	-1,33
650,88	-8,45
651,08	-8,14
651,27	-16,38
651,46	-16,90
651,65	-9,63
651,84	-27,34
652,03	-18,79
652,22	-16,03
652,41	-13,52
652,60	-16,18
652,79	-22,22
652,98	-12,39
653,17	-13,67
653,36	-17,00
653,55	-15,05
653,74	-25,39
653,93	-17,66
654,12	-20,79
654,31	-8,09
654,50	-32,97
654,69	-21,04
654,88	-27,55
655,07	-22,17
655,26	-11,32
655,45	-9,63
655,64	-32,82
655,83	-15,46
656,02	-5,38
656,21	-13,62
656,40	-19,35
656,59	6,66
656,78	-6,45
656,97	-4,35
657,17	-5,73
657,36	-11,93
657,55	-3,69
657,74	-19,51
657,93	-17,10
658,12	-16,49
658,31	-28,26
658,50	-28,47
658,69	-11,93
658,87	6,60
659,06	-19,05
659,25	3,43
659,44	-9,01
659,63	-14,34
659,82	-15,67
660,01	-17,46
660,20	-12,54
660,39	-18,28
660,58	-10,65
660,77	-31,23
660,96	-36,15
661,15	-7,68
661,34	-20,89
661,53	-21,45
661,72	-12,70
661,91	-7,58
662,10	-29,34
662,29	-20,94
662,48	-22,43
662,67	-32,61
662,86	-19,61
663,05	-39,07
663,24	-17,10
663,43	-14,03
663,62	-12,08
663,81	-9,22
664,00	-22,94
664,19	-16,18
664,38	-39,94
664,57	-22,17
664,76	-30,41
664,94	-14,23
665,13	-21,25
665,32	-11,42
665,51	-28,47
665,70	-19,46
665,89	-16,74
666,08	-29,49
666,27	-29,29
666,46	-30,92
666,65	-9,32
666,84	-22,27
667,03	-17,97
667,22	-27,34
667,41	-19,76
667,60	-11,16
667,78	-15,36
667,97	-11,72
668,16	-15,77
668,35	-32,46
668,54	9,01
668,73	-29,29
668,92	-20,48
669,11	-26,01
669,30	-25,91
669,49	-16,49
669,68	-21,55
669,86	-34,25
670,05	-27,39
670,24	-18,18
670,43	-32,00
670,62	-32,61
670,81	-20,38
671,00	-32,77
671,19	-31,54
671,38	-32,77
671,57	-23,24
671,75	-24,17
671,94	-5,17
672,13	-21,09
672,32	-21,40
672,51	-20,53
672,70	-1,43
672,89	-15,41
673,08	-26,37
673,26	-36,66
673,45	-17,00
673,64	-26,21
673,83	-15,92
674,02	-31,90
674,21	-32,36
674,40	-24,52
674,59	-18,59
674,77	-22,32
674,96	-26,01
675,15	-24,63
675,34	-36,61
675,53	-23,65
675,72	-24,83
675,91	-17,87
676,09	-12,60
676,28	-27,60
676,47	-27,70
676,66	-24,52
676,85	-22,27
677,04	-13,00
677,22	-12,60
677,41	-25,80
677,60	-18,74
677,79	-27,55
677,98	-17,36
678,17	-29,44
678,36	-14,34
678,54	-22,02
678,73	-19,76
678,92	-16,90
679,11	-17,97
679,30	-21,91
679,48	-25,19
679,67	-11,62
679,86	-31,28
680,05	-17,77
680,24	-16,84
680,43	-24,99
680,61	-20,99
680,80	-28,57
680,99	-11,42
681,18	-23,19
681,37	-35,17
681,55	-20,07
681,74	-19,35
681,93	-24,68
682,12	-36,40
682,31	-32,46
682,49	-27,34
682,68	-31,90
682,87	-33,89
683,06	-23,30
683,25	-21,50
683,43	-23,35
683,62	-38,45
683,81	-36,45
684,00	-21,50
684,19	-14,23
684,37	-26,47
684,56	-20,89
684,75	-35,23
684,94	-24,17
685,12	-26,93
685,31	-44,24
685,50	-34,82
685,69	-30,21
685,88	-27,08
686,06	-22,17
686,25	-3,07
686,44	-26,27
686,63	-26,93
686,81	-20,07
687,00	-11,06
687,19	-11,67
687,38	-12,70
687,56	-18,12
687,75	-16,38
687,94	3,74
688,13	-3,89
688,31	-17,31
688,50	-16,33
688,69	-19,61
688,88	5,38
689,06	-18,48
689,25	-3,12
689,44	-7,68
689,63	-18,84
689,81	-1,33
690,00	-28,31
690,19	-20,94
690,38	-14,69
690,56	-20,79
690,75	-23,40
690,94	-22,63
691,13	-21,40
691,31	-23,91
691,50	-9,57
691,69	-16,38
691,87	-18,74
692,06	-21,76
692,25	-28,21
692,44	-28,36
692,62	-21,96
692,81	0,10
693,00	-14,64
693,18	-11,62
693,37	-43,42
693,56	-14,44
693,75	-33,33
693,93	-22,68
694,12	-15,97
694,31	-21,30
694,49	-27,29
694,68	-12,39
694,87	-22,32
695,05	-26,98
695,24	-18,48
695,43	-26,32
695,62	-15,15
695,80	3,69
695,99	0,20
696,18	31,95
696,36	28,42
696,55	42,09
696,74	36,61
696,92	42,14
697,11	26,52
697,30	44,54
697,48	28,36
697,67	17,20
697,86	12,80
698,04	1,54
698,23	14,28
698,42	-10,39
698,60	0,05
698,79	7,99
698,98	-26,88
699,16	-12,39
699,35	-22,02
699,54	-4,92
699,72	-17,92
699,91	-27,85
700,10	-16,59
700,28	3,84
700,47	-20,12
700,66	-21,35
700,84	-36,30
701,03	-14,08
701,21	-31,44
701,40	-24,22
701,59	-38,35
701,77	-19,66
701,96	-23,71
702,15	-34,51
702,33	-38,96
702,52	-17,00
702,71	-30,77
702,89	-32,77
703,08	-13,93
703,26	-23,45
703,45	-27,70
703,64	-30,51
703,82	-23,76
704,01	-19,87
704,20	-36,91
704,38	-28,47
704,57	-25,96
704,75	-16,38
704,94	-18,99
705,13	-22,37
705,31	-24,93
705,50	-29,85
705,68	-16,84
705,87	-17,87
706,06	-5,58
706,24	10,09
706,43	20,53
706,61	16,18
706,80	16,49
706,99	22,37
707,17	21,30
707,36	23,45
707,54	6,71
707,73	-2,76
707,92	-4,35
708,10	-10,34
708,29	-15,72
708,47	1,95
708,66	-29,49
708,84	-14,75
709,03	-14,90
709,22	-19,92
709,40	-22,68
709,59	-28,57
709,77	-14,54
709,96	-30,57
710,14	-25,86
710,33	-29,44
710,52	-38,76
710,70	-25,19
710,89	-28,06
711,07	-43,01
711,26	-35,43
711,44	-22,37
711,63	-22,37
711,81	-24,99
712,00	-26,83
712,19	-33,13
712,37	-28,67
712,56	-26,98
712,74	-30,41
712,93	-32,77
713,11	-27,03
713,30	-19,25
713,48	-35,58
713,67	-26,11
713,85	-14,13
714,04	-29,85
714,22	-21,50
714,41	-19,15
714,59	-16,84
714,78	-37,17
714,97	-8,09
715,15	-23,65
715,34	-15,46
715,52	-29,13
715,71	-21,66
715,89	-18,43
716,08	-18,02
716,26	-22,94
716,45	-17,66
716,63	-24,58
716,82	-32,10
717,00	-24,01
717,19	-22,99
717,37	-34,05
717,56	-26,37
717,74	-23,24
717,93	-11,67
718,11	-13,31
718,30	-23,71
718,48	-22,27
718,67	-7,53
718,85	-14,49
719,04	-38,71
719,22	-26,21
719,41	-33,02
719,59	-7,01
719,78	-6,35
719,96	-11,93
720,15	-2,56
720,33	-17,25
720,52	-35,99
720,70	-14,90
720,88	-5,38
721,07	-12,85
721,25	-18,94
721,44	-3,12
721,62	-11,57
721,81	-23,19
721,99	-15,87
722,18	-24,58
722,36	-27,90
722,55	-19,30
722,73	-3,99
722,92	-30,87
723,10	-29,90
723,28	-9,63
723,47	-21,86
723,65	-11,37
723,84	-32,82
724,02	-12,90
724,21	-18,79
724,39	-10,60
724,58	-32,05
724,76	-28,62
724,94	-9,78
725,13	-21,40
725,31	-31,08
725,50	-11,37
725,68	-20,89
725,87	-16,54
726,05	-19,61
726,23	-33,13
726,42	-17,56
726,60	-19,76
726,79	-4,45
726,97	0,56
727,16	-10,09
727,34	-12,54
727,52	-4,25
727,71	0,72
727,89	-15,97
728,08	-14,59
728,26	-11,47
728,44	-12,44
728,63	-16,54
728,81	-6,76
729,00	-1,08
729,18	-17,36
729,36	-14,75
729,55	-27,19
729,73	-14,28
729,92	-15,00
730,10	-3,28
730,28	2,61
730,47	-16,33
730,65	-22,48
730,84	-25,55
731,02	-26,98
731,20	-9,22
731,39	-35,74
731,57	-22,99
731,75	-23,81
731,94	-19,35
732,12	-10,44
732,31	-15,46
732,49	-8,14
732,67	-17,82
732,86	-29,44
733,04	-25,09
733,22	-17,66
733,41	-24,37
733,59	-8,65
733,78	-20,22
733,96	-21,20
734,14	-9,93
734,33	-27,14
734,51	-19,76
734,69	-14,69
734,88	-55,24
735,06	-28,16
735,24	-25,34
735,43	-19,71
735,61	-14,18
735,79	-25,04
735,98	-19,15
736,16	-13,06
736,34	-14,03
736,53	-18,89
736,71	-31,64
736,89	-22,83
737,08	-24,47
737,26	-1,89
737,44	-17,36
737,63	14,18
737,81	26,32
737,99	41,78
738,18	57,80
738,36	53,50
738,54	48,54
738,73	38,19
738,91	36,61
739,09	30,77
739,28	17,25
739,46	8,14
739,64	4,20
739,82	10,09
740,01	-7,22
740,19	-7,07
740,37	2,36
740,56	1,74
740,74	-29,08
740,92	-23,30
741,11	-23,81
741,29	-21,61
741,47	-23,71
741,65	-33,89
741,84	-37,32
742,02	-15,62
742,20	-20,17
742,39	-31,44
742,57	-9,83
742,75	-26,62
742,93	-16,79
743,12	-34,20
743,30	-2,87
743,48	-27,60
743,67	-18,23
743,85	-18,23
744,03	-21,66
744,21	-26,88
744,40	-36,76
744,58	-19,61
744,76	-21,04
744,94	-21,04
745,13	-14,03
745,31	-14,85
745,49	-23,14
745,67	-20,68
745,86	-24,06
746,04	-18,33
746,22	-18,74
746,40	-37,68
746,59	-30,16
746,77	-34,66
746,95	-18,38
747,13	-32,82
747,32	-14,49
747,50	-13,67
747,68	-16,69
747,86	-25,75
748,05	-25,60
748,23	-18,02
748,41	-47,10
748,59	-28,57
748,77	-24,99
748,96	-27,55
749,14	-18,94
749,32	-6,50
749,50	1,95
749,69	9,83
749,87	8,81
750,05	32,92
750,23	48,64
750,41	57,91
750,60	67,99
750,78	70,65
750,96	73,88
751,14	81,05
751,32	74,75
751,51	81,41
751,69	69,27
751,87	34,71
752,05	41,83
752,23	29,29
752,42	26,06
752,60	29,18
752,78	12,54
752,96	1,69
753,14	6,25
753,33	-18,28
753,51	-10,91
753,69	-22,68
753,87	-19,56
754,05	-18,48
754,23	-14,54
754,42	-7,78
754,60	-23,19
754,78	-28,42
754,96	-18,69
755,14	-17,71
755,32	-13,36
755,51	-16,79
755,69	-38,86
755,87	-15,62
756,05	-18,69
756,23	-25,24
756,41	-7,42
756,60	-20,58
756,78	-17,51
756,96	-13,67
757,14	-23,40
757,32	-16,59
757,50	-17,56
757,68	-32,41
757,87	-25,29
758,05	-25,70
758,23	-15,21
758,41	-13,57
758,59	-28,06
758,77	-9,52
758,95	-4,81
759,14	-18,84
759,32	-16,49
759,50	-23,45
759,68	0,26
759,86	-8,35
760,04	-2,76
760,22	12,29
760,40	-6,09
760,59	-4,30
760,77	12,65
760,95	-3,38
761,13	9,83
761,31	6,96
761,49	10,60
761,67	3,02
761,85	-3,99
762,03	-13,47
762,22	18,53
762,40	62,05
762,58	105,27
762,76	186,98
762,94	262,70
763,12	294,75
763,30	322,50
763,48	343,03
763,66	327,27
763,84	292,45
764,02	223,64
764,21	173,57
764,39	176,07
764,57	137,83
764,75	110,39
764,93	95,90
765,11	67,53
765,29	51,81
765,47	39,17
765,65	55,35
765,83	21,30
766,01	42,14
766,19	27,70
766,37	12,44
766,56	28,06
766,74	19,51
766,92	-5,48
767,10	9,68
767,28	10,24
767,46	11,21
767,64	-12,60
767,82	-4,45
768,00	-19,05
768,18	-23,55
768,36	7,48
768,54	2,76
768,72	-31,44
768,90	-21,50
769,08	-7,88
769,26	-11,88
769,44	-1,69
769,62	-15,51
769,80	-4,61
769,98	-4,51
770,16	-12,19
770,34	-3,43
770,52	-13,41
770,71	-17,56
770,89	-14,69
771,07	3,58
771,25	-4,86
771,43	23,14
771,61	36,76
771,79	65,43
771,97	80,95
772,15	94,77
772,33	92,47
772,51	84,43
772,69	72,75
772,87	54,48
773,05	58,93
773,23	50,79
773,41	20,94
773,59	21,91
773,77	7,94
773,95	2,61
774,13	-0,92
774,31	0,41
774,49	-4,15
774,67	-6,25
774,85	-10,39
775,03	-27,80
775,21	-22,94
775,39	-17,00
775,57	-21,35
775,75	-19,20
775,93	-26,32
776,10	-15,15
776,28	-33,59
776,46	-8,91
776,64	-16,79
776,82	-26,78
777,00	-97,23
777,18	-17,51
777,36	-20,48
777,54	-13,36
777,72	-17,31
777,90	-31,90
778,08	-10,44
778,26	-14,59
778,44	-8,24
778,62	-22,83
778,80	-19,30
778,98	-16,64
779,16	-16,43
779,34	-15,00
779,52	-17,00
779,70	-11,32
779,88	-23,86
780,05	1,64
780,23	-3,17
780,41	-13,67
780,59	-26,32
780,77	-17,61
780,95	-7,73
781,13	-8,45
781,31	-26,88
781,49	-13,82
781,67	-13,36
781,85	-8,60
782,03	-18,33
782,21	-20,07
782,39	-30,51
782,56	-21,86
782,74	-14,85
782,92	-21,40
783,10	-14,64
783,28	-17,71
783,46	-11,93
783,64	-16,03
783,82	-25,04
784,00	-18,23
784,18	-9,32
784,35	-13,47
784,53	-6,30
784,71	-22,68
784,89	-12,60
785,07	-8,35
785,25	-5,17
785,43	-18,12
785,61	-8,09
785,79	-9,37
785,96	-8,29
786,14	-23,09
786,32	-21,50
786,50	-20,48
786,68	-16,28
786,86	-27,80
787,04	-14,90
787,22	-23,81
787,39	-21,25
787,57	-17,46
787,75	5,53
787,93	-9,52
788,11	-13,87
788,29	-8,96
788,47	-8,19
788,65	-13,00
788,82	-8,09
789,00	-8,76
789,18	-23,45
789,36	-18,69
789,54	-21,04
789,72	6,40
789,89	-7,58
790,07	6,40
790,25	4,20
790,43	-10,55
790,61	-5,17
790,79	-29,59
790,96	-27,75
791,14	-22,94
791,32	-23,96
791,50	4,76
791,68	-4,20
791,86	0,56
792,03	1,38
792,21	4,40
792,39	-22,22
792,57	6,25
792,75	-6,71
792,93	4,20
793,10	-20,07
793,28	7,48
793,46	-11,37
793,64	2,46
793,82	8,04
793,99	25,04
794,17	43,26
794,35	46,18
794,53	62,92
794,71	66,56
794,88	60,67
795,06	41,62
795,24	15,82
795,42	20,48
795,60	20,12
795,77	21,71
795,95	-7,01
796,13	3,12
796,31	3,33
796,49	-10,14
796,66	-7,01
796,84	8,70
797,02	-3,74
797,20	-9,68
797,37	-3,17
797,55	-12,39
797,73	-29,08
797,91	-17,00
798,08	1,59
798,26	-23,65
798,44	-6,40
798,62	-16,23
798,80	2,61
798,97	-5,68
799,15	-9,27
799,33	-4,61
799,51	12,54
799,68	-4,76
799,86	14,85
800,04	25,14
800,22	24,37
800,39	40,65
800,57	65,02
800,75	84,27
800,93	84,33
801,10	74,24
801,28	59,44
801,46	58,11
801,63	68,30
801,81	37,89
801,99	38,71
802,17	17,41
802,34	16,28
802,52	14,85
802,70	10,14
802,88	19,35
803,05	2,56
803,23	16,23
803,41	2,61
803,58	7,94
803,76	3,33
803,94	9,01
804,12	-5,94
804,29	-2,97
804,47	-0,15
804,65	-10,91
804,82	2,87
805,00	11,11
805,18	-5,53
805,35	-7,94
805,53	6,50
805,71	-8,14
805,89	-11,62
806,06	13,00
806,24	-26,62
806,42	4,45
806,59	-15,15
806,77	-11,57
806,95	-10,96
807,12	-9,98
807,30	9,06
807,48	-6,55
807,65	-10,96
807,83	10,80
808,01	9,88
808,18	3,02
808,36	-5,32
808,54	-5,89
808,71	-8,35
808,89	-3,99
809,07	1,23
809,24	19,20
809,42	45,77
809,60	71,47
809,77	56,83
809,95	77,21
810,13	81,46
810,30	124,82
810,48	163,79
810,66	209,20
810,83	231,78
811,01	256,71
811,18	254,46
811,36	249,65
811,54	222,20
811,71	175,61
811,89	148,07
812,07	96,15
812,24	94,21
812,42	75,93
812,59	66,00
812,77	58,37
812,95	39,07
813,12	42,03
813,30	35,28
813,48	32,41
813,65	21,66
813,83	18,53
814,00	17,46
814,18	13,87
814,36	1,89
814,53	-5,27
814,71	1,02
814,88	0,05
815,06	23,91
815,24	-8,09
815,41	6,66
815,59	10,65
815,76	15,15
815,94	8,50
816,12	18,69
816,29	6,96
816,47	-2,92
816,64	16,38
816,82	35,99
817,00	85,71
817,17	156,82
817,35	256,66
817,52	330,90
817,70	412,00
817,87	452,04
818,05	482,66
818,23	538,87
818,40	626,63
818,58	714,33
818,75	803,01
818,93	820,21
819,10	841,15
819,28	769,42
819,46	655,81
819,63	537,75
819,81	431,92
819,98	347,18
820,16	298,34
820,33	250,67
820,51	200,75
820,68	190,72
820,86	156,52
821,03	130,40
821,21	119,96
821,39	89,45
821,56	78,33
821,74	55,50
821,91	64,56
822,09	17,97
822,26	32,72
822,44	18,23
822,61	1,18
822,79	16,03
822,96	2,92
823,14	11,06
823,31	-5,73
823,49	12,60
823,66	-2,66
823,84	2,25
824,01	17,92
824,19	-0,56
824,36	-8,55
824,54	-7,73
824,71	8,86
824,89	-7,68
825,06	11,37
825,24	13,98
825,41	33,28
825,59	26,06
825,76	39,27
825,94	40,40
826,11	22,94
826,29	59,24
826,46	27,70
826,64	15,21
826,81	18,07
826,99	15,97
827,16	23,30
827,34	-3,38
827,51	15,36
827,69	1,64
827,86	25,96
828,04	16,43
828,21	0,56
828,39	12,13
828,56	3,33
828,74	0,92
828,91	2,15
829,09	-4,76
829,26	-4,61
829,43	-0,87
829,61	-11,11
829,78	1,74
829,96	-13,00
830,13	7,01
830,31	-5,99
830,48	-5,48
830,66	12,13
830,83	2,76
831,01	-4,66
831,18	-6,55
831,35	26,37
831,53	6,50
831,70	3,64
831,88	8,76
832,05	7,01
832,23	2,82
832,40	4,56
832,57	-0,26
832,75	-17,87
832,92	-9,83
833,10	7,99
833,27	-14,18
833,45	-19,81
833,62	0,92
833,79	5,63
833,97	-3,58
834,14	5,94
834,32	-11,52
834,49	-0,31
834,66	-4,40
834,84	-4,30
835,01	-2,20
835,19	-13,36
835,36	-0,67
835,53	11,62
835,71	-17,15
835,88	-0,67
836,06	-4,15
836,23	-22,58
836,40	-4,61
836,58	-9,47
836,75	-12,60
836,93	13,77
837,10	-19,05
837,27	-3,69
837,45	-5,12
837,62	-2,10
837,79	-0,46
837,97	-0,20
838,14	-6,45
838,32	-1,89
838,49	-0,15
838,66	9,37
838,84	25,19
839,01	-18,84
839,18	-1,59
839,36	20,58
839,53	18,07
839,70	19,97
839,88	39,27
840,05	47,15
840,23	37,12
840,40	53,45
840,57	57,39
840,75	33,07
840,92	64,82
841,09	66,35
841,27	52,27
841,44	61,08
841,61	66,41
841,79	76,08
841,96	75,57
842,13	86,89
842,31	63,23
842,48	51,15
842,65	53,40
842,83	43,57
843,00	28,26
843,17	33,89
843,35	22,27
843,52	15,31
843,69	14,49
843,86	3,53
844,04	13,77
844,21	17,46
844,38	26,11
844,56	15,77
844,73	18,69
844,90	0,41
845,08	-2,76
845,25	3,28
845,42	0,31
845,60	4,97
845,77	-3,43
845,94	0,56
846,11	-8,50
846,29	-0,61
846,46	-3,17
846,63	-4,92
846,81	3,53
846,98	3,69
847,15	-0,92
847,32	-1,23
847,50	-4,97
847,67	1,74
847,84	-22,73
848,01	2,51
848,19	5,12
848,36	3,12
848,53	-12,19
848,71	7,58
848,88	-11,01
849,05	3,28
849,22	-10,85
849,40	-0,97
849,57	-11,98
849,74	-1,69
849,91	10,24
850,09	-3,17
850,26	-0,82
850,43	-0,92
850,60	13,52
850,78	-1,23
850,95	-8,09
851,12	24,88
851,29	17,56
851,47	19,71
851,64	23,14
851,81	14,95
851,98	-3,33
852,15	13,06
852,33	8,96
852,50	3,17
852,67	17,92
852,84	5,43
853,02	7,42
853,19	-1,08
853,36	-3,53
853,53	-2,66
853,70	3,94
853,88	7,63
854,05	-1,69
854,22	4,56
854,39	-0,92
854,56	1,18
854,74	10,14
854,91	11,37
855,08	-0,15
855,25	11,93
855,42	-11,01
855,60	6,96
855,77	-0,92
855,94	15,15
856,11	11,88
856,28	-3,53
856,46	-1,84
856,63	11,26
856,80	1,79
856,97	-0,26
857,14	3,38
857,31	5,22
857,49	-13,36
857,66	-3,33
857,83	0,46
858,00	8,76
858,17	6,66
858,34	-1,64
858,52	-1,13
858,69	12,19
858,86	19,30
859,03	5,43
859,20	-0,20
859,37	7,88
859,55	6,55
859,72	-1,59
859,89	12,19
860,06	8,29
860,23	13,31
860,40	5,48
860,57	-0,31
860,75	-5,79
860,92	-3,28
861,09	20,58
861,26	0,82
861,43	4,51
861,60	7,07
861,77	0,05
861,95	0,05
862,12	6,25
862,29	-4,51
862,46	-4,56
862,63	13,16
862,80	0,87
862,97	6,86
863,14	6,76
863,31	11,83
863,49	-11,78
863,66	12,80
863,83	15,10
864,00	-3,53
864,17	1,02
864,34	11,01
864,51	7,68
864,68	-0,15
864,85	6,55
865,02	-7,27
865,20	8,29
865,37	-9,57
865,54	-4,20
865,71	5,63
865,88	1,69
866,05	8,86
866,22	8,19
866,39	5,94
866,56	6,71
866,73	-4,76
866,90	13,93
867,07	21,04
867,25	3,38
867,42	0,20
867,59	10,75
867,76	10,14
867,93	11,42
868,10	3,48
868,27	1,48
868,44	12,90
868,61	4,61
868,78	-5,94
868,95	17,71
869,12	-0,72
869,29	17,82
869,46	11,42
869,63	4,04
869,80	9,83
869,97	-6,35
870,14	17,71
870,32	4,10
870,49	-5,38
870,66	-8,29
870,83	1,23
871,00	15,77
871,17	10,91
871,34	-2,10
871,51	3,84
871,68	-11,16
871,85	2,46
872,02	-10,39
872,19	3,23
872,36	-4,81
872,53	3,74
872,70	-4,86
872,87	-6,91
873,04	18,43
873,21	-0,61
873,38	1,54
873,55	11,67
873,72	11,57
873,89	-5,58
874,06	-3,23
874,23	-6,25
874,40	-3,33
874,57	2,36
874,74	11,06
874,91	-9,63
875,08	-5,94
875,25	-3,99
875,42	12,29
875,59	5,58
875,76	3,07
875,93	5,17
876,10	6,66
876,27	11,01
876,44	3,43
876,61	6,60
876,78	3,99
876,95	0,46
877,12	1,08
877,29	0,92
877,46	-5,02
877,62	23,35
877,79	-4,25
877,96	0,20
878,13	-17,92
878,30	-5,58
878,47	3,07
878,64	14,34
878,81	11,21
878,98	13,93
879,15	16,74
879,32	3,99
879,49	-2,66
879,66	-4,04
879,83	14,03
880,00	-12,08
880,17	-0,97
880,34	-5,84
880,51	12,03
880,67	3,84
880,84	-4,25
881,01	3,43
881,18	5,79
881,35	19,66
881,52	3,17
881,69	4,66
881,86	4,86
882,03	8,40
882,20	8,24
882,37	3,38
882,54	-3,43
882,70	6,25
882,87	-9,68
883,04	7,42
883,21	15,05
883,38	11,11
883,55	2,00
883,72	-6,96
883,89	14,44
884,06	5,38
884,23	1,13
884,39	6,50
884,56	6,81
884,73	5,02
884,90	5,79
885,07	-3,07
885,24	11,47
885,41	12,39
885,58	8,81
885,74	-1,64
885,91	13,77
886,08	6,09
886,25	-21,96
886,42	12,44
886,59	11,93
886,76	-6,40
886,93	1,13
887,09	16,79
887,26	-13,11
887,43	9,52
887,60	-0,46
887,77	10,50
887,94	4,51
888,10	-1,13
888,27	9,06
888,44	15,26
888,61	-10,75
888,78	14,64
888,95	9,68
889,12	-0,46
889,28	3,58
889,45	2,05
889,62	6,81
889,79	0,51
889,96	9,47
890,13	9,83
890,29	18,18
890,46	15,97
890,63	12,24
890,80	11,62
890,97	3,79
891,13	13,21
891,30	5,27
891,47	-9,83
891,64	-5,79
891,81	1,02
891,98	-16,33
892,14	-6,20
892,31	-2,46
892,48	2,15
892,65	7,01
892,82	7,12
892,98	-7,27
893,15	-2,46
893,32	19,76
>>>>>End Processed Spectral Data<<<<<
